!AWR Design Environment (3650) Fri Nov 02 08:09:43 2007
!DC added
!freq-unit  param-type  data-format  keyword  impedance-ohms
# GHz           S          MA           R         50
!-----------------------------------------------------------------------------
0.00	         	0.5			180		0.5		0		0.5		0		0.5		0
			0.5			0		0.5		180		0.5		0		0.5		0
			0.5			0		0.5		0		0.5		-180		0.5		0
			0.5			0		0.5		0		0.5		0		0.5		180

 0.05         0.50004     -179.66       0.49999     -0.44797      0.49999     -0.4681       0.49999     -0.448       
              0.49999     -0.44797      0.50004     -179.67       0.49998     -0.41151      0.49999     -0.51458     
              0.49999     -0.4681       0.49998     -0.41151      0.50005     -179.59       0.49998     -0.41089     
              0.49999     -0.448        0.49999     -0.51458      0.49998     -0.41089      0.50004     -179.67      

 0.2          0.50053     -178.66       0.49982     -1.7915       0.49981     -1.8721       0.49982     -1.7916      
              0.49982     -1.7915       0.50057     -178.7        0.49972     -1.6456       0.49986     -2.058       
              0.49981     -1.8721       0.49972     -1.6456       0.50071     -178.37       0.49972     -1.6432      
              0.49982     -1.7916       0.49986     -2.058        0.49972     -1.6432       0.50057     -178.7       

 0.4          0.50207     -177.33       0.4993      -3.5808       0.49928     -3.742        0.4993      -3.5811      
              0.4993      -3.5808       0.50226     -177.42       0.49893     -3.289        0.49945     -4.1144      
              0.49928     -3.742        0.49893     -3.289        0.5028      -176.75       0.49893     -3.284       
              0.4993      -3.5811       0.49945     -4.1144       0.49893     -3.284        0.50226     -177.41      

 0.6          0.5046      -176.04       0.49844     -5.3659       0.4984      -5.6078       0.49844     -5.3663      
              0.49844     -5.3659       0.50502     -176.17       0.49762     -4.9279       0.4988      -6.1674      
              0.4984      -5.6078       0.49762     -4.9279       0.50623     -175.19       0.49761     -4.9204      
              0.49844     -5.3663       0.4988      -6.1674       0.49761     -4.9204       0.50503     -176.16      

 0.8          0.50809     -174.78       0.49726     -7.1447       0.49718     -7.4674       0.49726     -7.1453      
              0.49726     -7.1447       0.50883     -174.97       0.4958      -6.5601       0.49789     -8.2157      
              0.49718     -7.4674       0.4958      -6.5601       0.51096     -173.68       0.49579     -6.5501      
              0.49726     -7.1453       0.49789     -8.2157       0.49579     -6.5501       0.50884     -174.96      

 1            0.5125      -173.58       0.49576     -8.9152       0.49564     -9.319        0.49576     -8.9159      
              0.49576     -8.9152       0.51362     -173.83       0.49348     -8.1837       0.49675     -10.258      
              0.49564     -9.319        0.49348     -8.1837       0.51689     -172.25       0.49346     -8.1712      
              0.49576     -8.9159       0.49675     -10.258       0.49346     -8.1712       0.51363     -173.81      

 1.2          0.51775     -172.44       0.49394     -10.676       0.49377     -11.161       0.49394     -10.676      
              0.49394     -10.676       0.51933     -172.76       0.49067     -9.7965       0.49537     -12.292      
              0.49377     -11.161       0.49067     -9.7965       0.52395     -170.9        0.49065     -9.7815      
              0.49394     -10.676       0.49537     -12.292       0.49065     -9.7815       0.51934     -172.75      

 1.4          0.52378     -171.36       0.49183     -12.424       0.49159     -12.991       0.49183     -12.425      
              0.49183     -12.424       0.52587     -171.77       0.48739     -11.397       0.49378     -14.317      
              0.49159     -12.991       0.48739     -11.397       0.53204     -169.66       0.48736     -11.379      
              0.49183     -12.425       0.49378     -14.317       0.48736     -11.379       0.52589     -171.76      

 1.6          0.53052     -170.37       0.48943     -14.159       0.48912     -14.807       0.48943     -14.16       
              0.48943     -14.159       0.53316     -170.88       0.48366     -12.982       0.49199     -16.332      
              0.48912     -14.807       0.48366     -12.982       0.54104     -168.53       0.48362     -12.962      
              0.48943     -14.16        0.49199     -16.332       0.48362     -12.962       0.53319     -170.86      

 1.8          0.5379      -169.45       0.48676     -15.878       0.48637     -16.609       0.48676     -15.879      
              0.48676     -15.878       0.54111     -170.07       0.47949     -14.552       0.49002     -18.336      
              0.48637     -16.609       0.47949     -14.552       0.55085     -167.51       0.47944     -14.529      
              0.48676     -15.879       0.49002     -18.336       0.47944     -14.529       0.54115     -170.05      

 2            0.54583     -168.62       0.48383     -17.58        0.48335     -18.394       0.48383     -17.582      
              0.48383     -17.58        0.54963     -169.37       0.4749      -16.103       0.48788     -20.328      
              0.48335     -18.394       0.4749      -16.103       0.56134     -166.6        0.47484     -16.078      
              0.48383     -17.582       0.48788     -20.328       0.47484     -16.078       0.54967     -169.35      

 2.2          0.55424     -167.87       0.48065     -19.264       0.48007     -20.162       0.48065     -19.266      
              0.48065     -19.264       0.55862     -168.76       0.46991     -17.636       0.4856      -22.308      
              0.48007     -20.162       0.46991     -17.636       0.57242     -165.81       0.46985     -17.607      
              0.48065     -19.266       0.4856      -22.308       0.46985     -17.607       0.55868     -168.73      

 2.4          0.56305     -167.21       0.47726     -20.929       0.47657     -21.911       0.47726     -20.931      
              0.47726     -20.929       0.56801     -168.24       0.46455     -19.147       0.48319     -24.274      
              0.47657     -21.911       0.46455     -19.147       0.58397     -165.12       0.46447     -19.116      
              0.47726     -20.931       0.48319     -24.274       0.46447     -19.116       0.56807     -168.22      

 2.6          0.57217     -166.62       0.47365     -22.573       0.47285     -23.64        0.47365     -22.575      
              0.47365     -22.573       0.57769     -167.82       0.45884     -20.636       0.48068     -26.226      
              0.47285     -23.64        0.45884     -20.636       0.5959      -164.54       0.45875     -20.602      
              0.47365     -22.575       0.48068     -26.226       0.45875     -20.602       0.57776     -167.8       

 2.8          0.58156     -166.11       0.46986     -24.195       0.46894     -25.348       0.46986     -24.198      
              0.46986     -24.195       0.5876      -167.5        0.4528      -22.103       0.4781      -28.165      
              0.46894     -25.348       0.4528      -22.103       0.6081      -164.06       0.4527      -22.066      
              0.46986     -24.198       0.4781      -28.165       0.4527      -22.066       0.58768     -167.47      

 2.9          0.58632     -165.89       0.4679      -24.998       0.46691     -26.194       0.4679      -25          
              0.4679      -24.998       0.59261     -167.36       0.44967     -22.827       0.47678     -29.13       
              0.46691     -26.194       0.44967     -22.827       0.61428     -163.86       0.44955     -22.788      
              0.4679      -25           0.47678     -29.13        0.44955     -22.788       0.59269     -167.34      

 2.95         0.58872     -165.78       0.4669      -25.398       0.46588     -26.614       0.4669      -25.4        
              0.4669      -25.398       0.59512     -167.31       0.44807     -23.187       0.47612     -29.611      
              0.46588     -26.614       0.44807     -23.187       0.61738     -163.77       0.44796     -23.147      
              0.4669      -25.4         0.47612     -29.611       0.44796     -23.147       0.59521     -167.28      

 3            0.59113     -165.68       0.46589     -25.795       0.46484     -27.034       0.4659      -25.798      
              0.46589     -25.795       0.59764     -167.26       0.44646     -23.545       0.47546     -30.091      
              0.46484     -27.034       0.44646     -23.545       0.62049     -163.68       0.44634     -23.505      
              0.4659      -25.798       0.47546     -30.091       0.44634     -23.505       0.59773     -167.23      

 3.1          0.59597     -165.49       0.46385     -26.587       0.46273     -27.869       0.46386     -26.589      
              0.46385     -26.587       0.6027      -167.17       0.44318     -24.257       0.47413     -31.049      
              0.46273     -27.869       0.44318     -24.257       0.62674     -163.52       0.44305     -24.215      
              0.46386     -26.589       0.47413     -31.049       0.44305     -24.215       0.60279     -167.14      

 3.2          0.60083     -165.32       0.46178     -27.372       0.46058     -28.698       0.46178     -27.375      
              0.46178     -27.372       0.60776     -167.1        0.43983     -24.962       0.4728      -32.003      
              0.46058     -28.698       0.43983     -24.962       0.633       -163.38       0.4397      -24.919      
              0.46178     -27.375       0.4728      -32.003       0.4397      -24.919       0.60786     -167.07      

 3.25         0.60327     -165.24       0.46072     -27.763       0.4595      -29.11        0.46073     -27.765      
              0.46072     -27.763       0.61029     -167.08       0.43813     -25.312       0.47214     -32.479      
              0.4595      -29.11        0.43813     -25.312       0.63614     -163.32       0.43799     -25.268      
              0.46073     -27.765       0.47214     -32.479       0.43799     -25.268       0.61039     -167.05      

 3.3          0.60571     -165.16       0.45967     -28.152       0.4584      -29.522       0.45967     -28.154      
              0.45967     -28.152       0.61282     -167.06       0.43642     -25.661       0.47147     -32.954      
              0.4584      -29.522       0.43642     -25.661       0.63927     -163.27       0.43628     -25.616      
              0.45967     -28.154       0.47147     -32.954       0.43628     -25.616       0.61292     -167.03      

 3.35         0.60815     -165.09       0.4586      -28.539       0.4573      -29.931       0.4586      -28.542      
              0.4586      -28.539       0.61535     -167.04       0.43469     -26.008       0.47081     -33.429      
              0.4573      -29.931       0.43469     -26.008       0.64241     -163.22       0.43454     -25.962      
              0.4586      -28.542       0.47081     -33.429       0.43454     -25.962       0.61546     -167.01      

 3.4          0.6106      -165.02       0.45752     -28.925       0.45619     -30.339       0.45752     -28.928      
              0.45752     -28.925       0.61788     -167.03       0.43295     -26.353       0.47014     -33.903      
              0.45619     -30.339       0.43295     -26.353       0.64555     -163.17       0.4328      -26.307      
              0.45752     -28.928       0.47014     -33.903       0.4328      -26.307       0.61799     -167         

 3.45         0.61305     -164.96       0.45644     -29.31        0.45507     -30.746       0.45644     -29.313      
              0.45644     -29.31        0.62041     -167.02       0.43119     -26.697       0.46948     -34.376      
              0.45507     -30.746       0.43119     -26.697       0.64869     -163.13       0.43103     -26.65       
              0.45644     -29.313       0.46948     -34.376       0.43103     -26.65        0.62051     -166.99      

 3.5          0.6155      -164.9        0.45535     -29.693       0.45394     -31.151       0.45535     -29.696      
              0.45535     -29.693       0.62293     -167.02       0.42941     -27.039       0.46883     -34.848      
              0.45394     -31.151       0.42941     -27.039       0.65182     -163.1        0.42925     -26.991      
              0.45535     -29.696       0.46883     -34.848       0.42925     -26.991       0.62303     -166.99      

 3.55         0.61795     -164.84       0.45425     -30.074       0.4528      -31.555       0.45426     -30.077      
              0.45425     -30.074       0.62544     -167.03       0.42763     -27.379       0.46817     -35.32       
              0.4528      -31.555       0.42763     -27.379       0.65495     -163.06       0.42746     -27.33       
              0.45426     -30.077       0.46817     -35.32        0.42746     -27.33        0.62555     -166.99      

 3.6          0.62039     -164.79       0.45315     -30.454       0.45166     -31.957       0.45315     -30.457      
              0.45315     -30.454       0.62795     -167.03       0.42583     -27.718       0.46752     -35.791      
              0.45166     -31.957       0.42583     -27.718       0.65808     -163.04       0.42566     -27.668      
              0.45315     -30.457       0.46752     -35.791       0.42566     -27.668       0.62806     -167         

 3.65         0.62284     -164.74       0.45204     -30.833       0.45051     -32.358       0.45204     -30.836      
              0.45204     -30.833       0.63045     -167.05       0.42401     -28.055       0.46687     -36.261      
              0.45051     -32.358       0.42401     -28.055       0.66121     -163.01       0.42384     -28.004      
              0.45204     -30.836       0.46687     -36.261       0.42384     -28.004       0.63056     -167.02      

 3.7          0.62528     -164.7        0.45092     -31.209       0.44936     -32.758       0.45093     -31.212      
              0.45092     -31.209       0.63294     -167.06       0.42218     -28.39        0.46623     -36.731      
              0.44936     -32.758       0.42218     -28.39        0.66432     -163          0.42201     -28.339      
              0.45093     -31.212       0.46623     -36.731       0.42201     -28.339       0.63306     -167.03      

 3.75         0.62773     -164.65       0.4498      -31.585       0.44819     -33.155       0.44981     -31.588      
              0.4498      -31.585       0.63543     -167.09       0.42034     -28.724       0.46559     -37.2        
              0.44819     -33.155       0.42034     -28.724       0.66743     -162.98       0.42016     -28.672      
              0.44981     -31.588       0.46559     -37.2         0.42016     -28.672       0.63555     -167.05      

 3.8          0.63017     -164.62       0.44868     -31.958       0.44703     -33.552       0.44868     -31.962      
              0.44868     -31.958       0.6379      -167.11       0.41849     -29.056       0.46496     -37.668      
              0.44703     -33.552       0.41849     -29.056       0.67054     -162.97       0.4183      -29.003      
              0.44868     -31.962       0.46496     -37.668       0.4183      -29.003       0.63802     -167.08      

 3.9          0.63503     -164.55       0.44641     -32.701       0.44467     -34.34        0.44641     -32.705      
              0.44641     -32.701       0.64282     -167.18       0.41475     -29.715       0.46371     -38.603      
              0.44467     -34.34        0.41475     -29.715       0.67672     -162.96       0.41455     -29.659      
              0.44641     -32.705       0.46371     -38.603       0.41455     -29.659       0.64295     -167.14      

 4            0.63987     -164.49       0.44412     -33.438       0.4423      -35.123       0.44412     -33.441      
              0.44412     -33.438       0.64769     -167.26       0.41096     -30.366       0.46249     -39.536      
              0.4423      -35.123       0.41096     -30.366       0.68287     -162.97       0.41075     -30.309      
              0.44412     -33.441       0.46249     -39.536       0.41075     -30.309       0.64782     -167.23      

 4.1          0.6447      -164.45       0.44181     -34.168       0.43991     -35.899       0.44181     -34.172      
              0.44181     -34.168       0.65251     -167.36       0.40713     -31.011       0.4613      -40.468      
              0.43991     -35.899       0.40713     -31.011       0.68898     -162.99       0.40691     -30.952      
              0.44181     -34.172       0.4613      -40.468       0.40691     -30.952       0.65265     -167.33      

 4.2          0.64949     -164.42       0.43949     -34.893       0.4375      -36.67        0.43949     -34.896      
              0.43949     -34.893       0.65728     -167.48       0.40325     -31.649       0.46015     -41.397      
              0.4375      -36.67        0.40325     -31.649       0.69505     -163.03       0.40303     -31.588      
              0.43949     -34.896       0.46015     -41.397       0.40303     -31.588       0.65741     -167.44      

 4.25         0.65187     -164.41       0.43832     -35.252       0.43628     -37.053       0.43832     -35.256      
              0.43832     -35.252       0.65963     -167.54       0.4013      -31.965       0.45959     -41.861      
              0.43628     -37.053       0.4013      -31.965       0.69806     -163.05       0.40108     -31.903      
              0.43832     -35.256       0.45959     -41.861       0.40108     -31.903       0.65977     -167.5       

 4.3          0.65425     -164.4        0.43715     -35.61        0.43507     -37.435       0.43715     -35.614      
              0.43715     -35.61        0.66198     -167.61       0.39934     -32.28        0.45904     -42.325      
              0.43507     -37.435       0.39934     -32.28        0.70106     -163.08       0.39911     -32.217      
              0.43715     -35.614       0.45904     -42.325       0.39911     -32.217       0.66212     -167.57      

 4.4          0.65898     -164.39       0.4348      -36.322       0.43263     -38.194       0.4348      -36.326      
              0.4348      -36.322       0.66661     -167.76       0.3954      -32.904       0.45797     -43.253      
              0.43263     -38.194       0.3954      -32.904       0.70702     -163.14       0.39515     -32.839      
              0.4348      -36.326       0.45797     -43.253       0.39515     -32.839       0.66675     -167.72      

 4.5          0.66367     -164.39       0.43244     -37.028       0.43018     -38.947       0.43244     -37.032      
              0.43244     -37.028       0.67117     -167.92       0.39141     -33.52        0.45696     -44.18       
              0.43018     -38.947       0.39141     -33.52        0.71292     -163.21       0.39116     -33.453      
              0.43244     -37.032       0.45696     -44.18        0.39116     -33.453       0.67131     -167.88      

 4.55         0.66599     -164.4        0.43126     -37.378       0.42895     -39.321       0.43126     -37.382      
              0.43126     -37.378       0.67342     -168.01       0.38941     -33.826       0.45647     -44.643      
              0.42895     -39.321       0.38941     -33.826       0.71585     -163.26       0.38915     -33.758      
              0.43126     -37.382       0.45647     -44.643       0.38915     -33.758       0.67356     -167.97      

 4.6          0.66831     -164.4        0.43007     -37.727       0.42772     -39.694       0.43008     -37.731      
              0.43007     -37.727       0.67565     -168.1        0.3874      -34.13        0.456       -45.106      
              0.42772     -39.694       0.3874      -34.13        0.71876     -163.3        0.38714     -34.061      
              0.43008     -37.731       0.456       -45.106       0.38714     -34.061       0.6758      -168.06      

 4.65         0.67062     -164.41       0.42889     -38.074       0.42648     -40.066       0.42889     -38.079      
              0.42889     -38.074       0.67786     -168.19       0.38538     -34.432       0.45555     -45.569      
              0.42648     -40.066       0.38538     -34.432       0.72166     -163.35       0.38511     -34.362      
              0.42889     -38.079       0.45555     -45.569       0.38511     -34.362       0.67801     -168.15      

 4.7          0.67292     -164.42       0.4277      -38.42        0.42524     -40.436       0.4277      -38.424      
              0.4277      -38.42        0.68004     -168.29       0.38336     -34.733       0.45511     -46.032      
              0.42524     -40.436       0.38336     -34.733       0.72454     -163.4        0.38308     -34.661      
              0.4277      -38.424       0.45511     -46.032       0.38308     -34.661       0.6802      -168.25      

 4.75         0.6752      -164.44       0.42651     -38.764       0.42401     -40.804       0.42651     -38.769      
              0.42651     -38.764       0.68221     -168.39       0.38132     -35.031       0.45468     -46.496      
              0.42401     -40.804       0.38132     -35.031       0.72741     -163.45       0.38104     -34.959      
              0.42651     -38.769       0.45468     -46.496       0.38104     -34.959       0.68236     -168.35      

 4.8          0.67748     -164.45       0.42532     -39.107       0.42277     -41.172       0.42532     -39.112      
              0.42532     -39.107       0.68435     -168.5        0.37928     -35.328       0.45428     -46.959      
              0.42277     -41.172       0.37928     -35.328       0.73026     -163.5        0.379       -35.254      
              0.42532     -39.112       0.45428     -46.959       0.379       -35.254       0.68451     -168.46      

 4.85         0.67974     -164.47       0.42413     -39.448       0.42152     -41.537       0.42413     -39.453      
              0.42413     -39.448       0.68647     -168.61       0.37724     -35.623       0.45389     -47.423      
              0.42152     -41.537       0.37724     -35.623       0.73309     -163.56       0.37695     -35.548      
              0.42413     -39.453       0.45389     -47.423       0.37695     -35.548       0.68663     -168.57      

 4.9          0.68199     -164.49       0.42294     -39.788       0.42028     -41.902       0.42294     -39.793      
              0.42294     -39.788       0.68857     -168.72       0.37519     -35.916       0.45352     -47.887      
              0.42028     -41.902       0.37519     -35.916       0.73591     -163.62       0.37489     -35.84       
              0.42294     -39.793       0.45352     -47.887       0.37489     -35.84        0.68873     -168.68      

 4.95         0.68423     -164.51       0.42174     -40.126       0.41904     -42.264       0.42174     -40.131      
              0.42174     -40.126       0.69064     -168.84       0.37313     -36.208       0.45317     -48.352      
              0.41904     -42.264       0.37313     -36.208       0.7387      -163.68       0.37283     -36.131      
              0.42174     -40.131       0.45317     -48.352       0.37283     -36.131       0.69081     -168.8       

 5            0.68646     -164.54       0.42055     -40.463       0.41779     -42.626       0.42055     -40.468      
              0.42055     -40.463       0.69269     -168.96       0.37106     -36.497       0.45285     -48.817      
              0.41779     -42.626       0.37106     -36.497       0.74148     -163.75       0.37076     -36.419      
              0.42055     -40.468       0.45285     -48.817       0.37076     -36.419       0.69285     -168.92      

 5.05         0.68867     -164.56       0.41935     -40.798       0.41655     -42.986       0.41936     -40.803      
              0.41935     -40.798       0.69471     -169.08       0.36899     -36.785       0.45254     -49.283      
              0.41655     -42.986       0.36899     -36.785       0.74424     -163.81       0.36868     -36.706      
              0.41936     -40.803       0.45254     -49.283       0.36868     -36.706       0.69488     -169.04      

 5.1          0.69087     -164.59       0.41816     -41.132       0.4153      -43.345       0.41816     -41.136      
              0.41816     -41.132       0.69671     -169.21       0.36692     -37.071       0.45226     -49.749      
              0.4153      -43.345       0.36692     -37.071       0.74699     -163.88       0.3666      -36.991      
              0.41816     -41.136       0.45226     -49.749       0.3666      -36.991       0.69688     -169.17      

 5.15         0.69305     -164.62       0.41697     -41.464       0.41406     -43.702       0.41697     -41.469      
              0.41697     -41.464       0.69868     -169.34       0.36484     -37.356       0.452       -50.215      
              0.41406     -43.702       0.36484     -37.356       0.74971     -163.95       0.36452     -37.274      
              0.41697     -41.469       0.452       -50.215       0.36452     -37.274       0.69885     -169.3       

 5.2          0.69523     -164.65       0.41577     -41.794       0.41281     -44.058       0.41577     -41.799      
              0.41577     -41.794       0.70062     -169.48       0.36275     -37.638       0.45177     -50.683      
              0.41281     -44.058       0.36275     -37.638       0.75242     -164.03       0.36243     -37.555      
              0.41577     -41.799       0.45177     -50.683       0.36243     -37.555       0.70079     -169.44      

 5.25         0.69739     -164.68       0.41458     -42.123       0.41156     -44.412       0.41458     -42.129      
              0.41458     -42.123       0.70254     -169.62       0.36066     -37.919       0.45156     -51.151      
              0.41156     -44.412       0.36066     -37.919       0.75511     -164.1        0.36033     -37.834      
              0.41458     -42.129       0.45156     -51.151       0.36033     -37.834       0.70271     -169.58      

 5.3          0.69953     -164.72       0.41339     -42.451       0.41032     -44.766       0.41339     -42.456      
              0.41339     -42.451       0.70442     -169.76       0.35857     -38.198       0.45137     -51.621      
              0.41032     -44.766       0.35857     -38.198       0.75778     -164.18       0.35823     -38.112      
              0.41339     -42.456       0.45137     -51.621       0.35823     -38.112       0.7046      -169.72      

 5.35         0.70167     -164.75       0.41219     -42.777       0.40907     -45.118       0.41219     -42.782      
              0.41219     -42.777       0.70628     -169.91       0.35647     -38.475       0.45122     -52.091      
              0.40907     -45.118       0.35647     -38.475       0.76043     -164.26       0.35612     -38.388      
              0.41219     -42.782       0.45122     -52.091       0.35612     -38.388       0.70646     -169.87      

 5.4          0.70378     -164.79       0.411       -43.102       0.40782     -45.468       0.411       -43.107      
              0.411       -43.102       0.70811     -170.06       0.35437     -38.751       0.45109     -52.562      
              0.40782     -45.468       0.35437     -38.751       0.76306     -164.34       0.35402     -38.662      
              0.411       -43.107       0.45109     -52.562       0.35402     -38.662       0.70828     -170.02      

 5.45         0.70589     -164.83       0.40981     -43.425       0.40658     -45.817       0.40981     -43.431      
              0.40981     -43.425       0.70991     -170.22       0.35226     -39.024       0.451       -53.035      
              0.40658     -45.817       0.35226     -39.024       0.76567     -164.42       0.3519      -38.934      
              0.40981     -43.431       0.451       -53.035       0.3519      -38.934       0.71008     -170.17      

 5.5          0.70798     -164.87       0.40862     -43.747       0.40533     -46.165       0.40862     -43.752      
              0.40862     -43.747       0.71167     -170.38       0.35015     -39.296       0.45093     -53.509      
              0.40533     -46.165       0.35015     -39.296       0.76826     -164.5        0.34979     -39.204      
              0.40862     -43.752       0.45093     -53.509       0.34979     -39.204       0.71185     -170.33      

 5.6          0.71212     -164.95       0.40625     -44.386       0.40285     -46.857       0.40625     -44.392      
              0.40625     -44.386       0.7151      -170.71       0.34592     -39.835       0.4509      -54.461      
              0.40285     -46.857       0.34592     -39.835       0.77339     -164.68       0.34554     -39.74       
              0.40625     -44.392       0.4509      -54.461       0.34554     -39.74        0.71528     -170.66      

 5.7          0.7162      -165.04       0.40388     -45.02        0.40036     -47.543       0.40388     -45.026      
              0.40388     -45.02        0.7184      -171.05       0.34167     -40.366       0.45101     -55.42       
              0.40036     -47.543       0.34167     -40.366       0.77844     -164.86       0.34128     -40.268      
              0.40388     -45.026       0.45101     -55.42        0.34128     -40.268       0.71859     -171.01      

 5.8          0.72022     -165.14       0.40152     -45.648       0.39789     -48.225       0.40152     -45.654      
              0.40152     -45.648       0.72156     -171.42       0.33741     -40.89        0.45127     -56.387      
              0.39789     -48.225       0.33741     -40.89        0.78341     -165.05       0.33701     -40.789      
              0.40152     -45.654       0.45127     -56.387       0.33701     -40.789       0.72174     -171.37      

 5.9          0.72419     -165.24       0.39916     -46.27        0.39542     -48.901       0.39916     -46.276      
              0.39916     -46.27        0.72456     -171.8        0.33314     -41.407       0.4517      -57.363      
              0.39542     -48.901       0.33314     -41.407       0.7883      -165.24       0.33273     -41.302      
              0.39916     -46.276       0.4517      -57.363       0.33273     -41.302       0.72475     -171.75      

 6            0.72809     -165.34       0.39682     -46.887       0.39295     -49.573       0.39682     -46.893      
              0.39682     -46.887       0.72741     -172.2        0.32886     -41.917       0.45231     -58.348      
              0.39295     -49.573       0.32886     -41.917       0.79311     -165.44       0.32844     -41.809      
              0.39682     -46.893       0.45231     -58.348       0.32844     -41.809       0.7276      -172.15      

 6.1          0.73194     -165.45       0.39448     -47.498       0.3905      -50.239       0.39448     -47.505      
              0.39448     -47.498       0.73009     -172.62       0.32457     -42.419       0.45311     -59.346      
              0.3905      -50.239       0.32457     -42.419       0.79785     -165.64       0.32414     -42.308      
              0.39448     -47.505       0.45311     -59.346       0.32414     -42.308       0.73029     -172.57      

 6.2          0.73573     -165.56       0.39216     -48.104       0.38805     -50.901       0.39216     -48.111      
              0.39216     -48.104       0.73259     -173.06       0.32027     -42.915       0.45413     -60.356      
              0.38805     -50.901       0.32027     -42.915       0.8025      -165.85       0.31983     -42.799      
              0.39216     -48.111       0.45413     -60.356       0.31983     -42.799       0.73279     -173.01      

 6.3          0.73946     -165.68       0.38985     -48.705       0.38561     -51.558       0.38984     -48.711      
              0.38985     -48.705       0.7349      -173.52       0.31597     -43.403       0.45537     -61.381      
              0.38561     -51.558       0.31597     -43.403       0.80708     -166.06       0.31551     -43.283      
              0.38984     -48.711       0.45537     -61.381       0.31551     -43.283       0.73511     -173.47      

 6.4          0.74313     -165.8        0.38755     -49.3         0.38319     -52.211       0.38754     -49.307      
              0.38755     -49.3         0.73701     -174.01       0.31166     -43.885       0.45688     -62.423      
              0.38319     -52.211       0.31166     -43.885       0.81157     -166.28       0.31119     -43.76       
              0.38754     -49.307       0.45688     -62.423       0.31119     -43.76        0.73722     -173.96      

 6.5          0.74674     -165.93       0.38526     -49.89        0.38077     -52.859       0.38525     -49.897      
              0.38526     -49.89        0.7389      -174.52       0.30735     -44.359       0.45866     -63.484      
              0.38077     -52.859       0.30735     -44.359       0.81599     -166.51       0.30686     -44.23       
              0.38525     -49.897       0.45866     -63.484       0.30686     -44.23        0.73911     -174.47      

 6.6          0.75029     -166.05       0.38299     -50.476       0.37837     -53.503       0.38298     -50.483      
              0.38299     -50.476       0.74054     -175.06       0.30303     -44.826       0.46074     -64.567      
              0.37837     -53.503       0.30303     -44.826       0.82033     -166.73       0.30253     -44.692      
              0.38298     -50.483       0.46074     -64.567       0.30253     -44.692       0.74076     -175.01      

 6.7          0.75378     -166.18       0.38073     -51.056       0.37597     -54.143       0.38072     -51.063      
              0.38073     -51.056       0.74193     -175.63       0.2987      -45.286       0.46317     -65.674      
              0.37597     -54.143       0.2987      -45.286       0.82459     -166.97       0.29819     -45.147      
              0.38072     -51.063       0.46317     -65.674       0.29819     -45.147       0.74215     -175.58      

 6.8          0.75722     -166.31       0.37849     -51.631       0.37359     -54.778       0.37847     -51.639      
              0.37849     -51.631       0.74304     -176.23       0.29438     -45.738       0.46596     -66.809      
              0.37359     -54.778       0.29438     -45.738       0.82877     -167.2        0.29385     -45.594      
              0.37847     -51.639       0.46596     -66.809       0.29385     -45.594       0.74325     -176.18      

 6.9          0.7606      -166.45       0.37626     -52.202       0.37123     -55.41        0.37624     -52.209      
              0.37626     -52.202       0.74382     -176.87       0.29005     -46.184       0.46917     -67.974      
              0.37123     -55.41        0.29005     -46.184       0.83288     -167.44       0.28951     -46.033      
              0.37624     -52.209       0.46917     -67.974       0.28951     -46.033       0.74404     -176.81      

 7            0.76392     -166.59       0.37405     -52.768       0.36888     -56.037       0.37402     -52.775      
              0.37405     -52.768       0.74426     -177.54       0.28572     -46.622       0.47285     -69.175      
              0.36888     -56.037       0.28572     -46.622       0.83691     -167.69       0.28516     -46.465      
              0.37402     -52.775       0.47285     -69.175       0.28516     -46.465       0.74449     -177.49      

 7.05         0.76555     -166.65       0.37295     -53.049       0.3677      -56.349       0.37292     -53.057      
              0.37295     -53.049       0.74434     -177.9        0.28355     -46.838       0.47487     -69.791      
              0.3677      -56.349       0.28355     -46.838       0.8389      -167.81       0.28299     -46.678      
              0.37292     -53.057       0.47487     -69.791       0.28299     -46.678       0.74456     -177.85      

 7.1          0.76718     -166.72       0.37185     -53.329       0.36654     -56.661       0.37183     -53.337      
              0.37185     -53.329       0.74431     -178.27       0.28138     -47.053       0.47703     -70.417      
              0.36654     -56.661       0.28138     -47.053       0.84086     -167.93       0.28082     -46.889      
              0.37183     -53.337       0.47703     -70.417       0.28082     -46.889       0.74454     -178.21      

 7.15         0.76879     -166.8        0.37076     -53.608       0.36537     -56.971       0.37073     -53.616      
              0.37076     -53.608       0.74417     -178.65       0.27922     -47.265       0.47933     -71.054      
              0.36537     -56.971       0.27922     -47.265       0.84281     -168.06       0.27864     -47.099      
              0.37073     -53.616       0.47933     -71.054       0.27864     -47.099       0.7444      -178.59      

 7.2          0.77039     -166.87       0.36967     -53.886       0.36421     -57.281       0.36964     -53.893      
              0.36967     -53.886       0.74392     -179.04       0.27705     -47.476       0.48179     -71.704      
              0.36421     -57.281       0.27705     -47.476       0.84474     -168.18       0.27647     -47.306      
              0.36964     -53.893       0.48179     -71.704       0.27647     -47.306       0.74415     -178.98      

 7.25         0.77197     -166.94       0.36859     -54.162       0.36306     -57.59        0.36856     -54.17       
              0.36859     -54.162       0.74354     -179.45       0.27488     -47.685       0.48441     -72.367      
              0.36306     -57.59        0.27488     -47.685       0.84666     -168.31       0.27429     -47.511      
              0.36856     -54.17        0.48441     -72.367       0.27429     -47.511       0.74377     -179.39      

 7.3          0.77354     -167.01       0.36751     -54.438       0.3619      -57.897       0.36748     -54.446      
              0.36751     -54.438       0.74303     -179.87       0.27271     -47.892       0.4872      -73.044      
              0.3619      -57.897       0.27271     -47.892       0.84855     -168.44       0.27212     -47.714      
              0.36748     -54.446       0.4872      -73.044       0.27212     -47.714       0.74326     -179.81      

 7.35         0.77509     -167.08       0.36644     -54.712       0.36075     -58.204       0.3664      -54.72       
              0.36644     -54.712       0.74237      179.69       0.27055     -48.098       0.49017     -73.736      
              0.36075     -58.204       0.27055     -48.098       0.85042     -168.57       0.26994     -47.915      
              0.3664      -54.72        0.49017     -73.736       0.26994     -47.915       0.74261      179.75      

 7.4          0.77663     -167.15       0.36537     -54.986       0.35961     -58.51        0.36533     -54.994      
              0.36537     -54.986       0.74156      179.24       0.26838     -48.301       0.49334     -74.445      
              0.35961     -58.51        0.26838     -48.301       0.85228     -168.7        0.26777     -48.114      
              0.36533     -54.994       0.49334     -74.445       0.26777     -48.114       0.7418       179.3       

 7.45         0.77816     -167.23       0.3643      -55.258       0.35847     -58.816       0.36426     -55.266      
              0.3643      -55.258       0.74058      178.76       0.26621     -48.503       0.49671     -75.171      
              0.35847     -58.816       0.26621     -48.503       0.85412     -168.83       0.26559     -48.311      
              0.36426     -55.266       0.49671     -75.171       0.26559     -48.311       0.74082      178.82      

 7.5          0.77967     -167.3        0.36324     -55.53        0.35733     -59.12        0.3632      -55.537      
              0.36324     -55.53        0.73943      178.27       0.26404     -48.703       0.50031     -75.915      
              0.35733     -59.12        0.26404     -48.703       0.85594     -168.96       0.26342     -48.506      
              0.3632      -55.537       0.50031     -75.915       0.26342     -48.506       0.73967      178.33      

 7.55         0.78117     -167.37       0.36219     -55.8         0.3562      -59.424       0.36214     -55.808      
              0.36219     -55.8         0.73808      177.76       0.26187     -48.9         0.50415     -76.68       
              0.3562      -59.424       0.26187     -48.9         0.85774     -169.09       0.26124     -48.699      
              0.36214     -55.808       0.50415     -76.68        0.26124     -48.699       0.73832      177.81      

 7.6          0.78266     -167.45       0.36114     -56.069       0.35507     -59.727       0.36109     -56.077      
              0.36114     -56.069       0.73651      177.22       0.2597      -49.096       0.50824     -77.467      
              0.35507     -59.727       0.2597      -49.096       0.85953     -169.22       0.25907     -48.89       
              0.36109     -56.077       0.50824     -77.467       0.25907     -48.89        0.73676      177.28      

 7.65         0.78414     -167.52       0.36009     -56.337       0.35394     -60.029       0.36004     -56.345      
              0.36009     -56.337       0.73472      176.66       0.25753     -49.291       0.5126      -78.277      
              0.35394     -60.029       0.25753     -49.291       0.8613      -169.35       0.25689     -49.079      
              0.36004     -56.345       0.5126      -78.277       0.25689     -49.079       0.73498      176.72      

 7.7          0.7856      -167.6        0.35905     -56.605       0.35282     -60.33        0.35899     -56.612      
              0.35905     -56.605       0.73268      176.07       0.25536     -49.483       0.51725     -79.113      
              0.35282     -60.33        0.25536     -49.483       0.86305     -169.49       0.25472     -49.265      
              0.35899     -56.612       0.51725     -79.113       0.25472     -49.265       0.73294      176.13      

 7.75         0.78704     -167.67       0.35801     -56.871       0.3517      -60.631       0.35795     -56.878      
              0.35801     -56.871       0.73037      175.45       0.25319     -49.673       0.52222     -79.976      
              0.3517      -60.631       0.25319     -49.673       0.86478     -169.62       0.25254     -49.449      
              0.35795     -56.878       0.52222     -79.976       0.25254     -49.449       0.73062      175.51      

 7.8          0.78848     -167.75       0.35698     -57.136       0.35059     -60.931       0.35691     -57.143      
              0.35698     -57.136       0.72775      174.8        0.25102     -49.861       0.52753     -80.869      
              0.35059     -60.931       0.25102     -49.861       0.86649     -169.76       0.25037     -49.631      
              0.35691     -57.143       0.52753     -80.869       0.25037     -49.631       0.72801      174.86      

 7.85         0.7899      -167.83       0.35596     -57.401       0.34948     -61.23        0.35588     -57.407      
              0.35596     -57.401       0.7248       174.11       0.24885     -50.048       0.5332      -81.796      
              0.34948     -61.23        0.24885     -50.048       0.86819     -169.89       0.24819     -49.811      
              0.35588     -57.407       0.5332      -81.796       0.24819     -49.811       0.72507      174.18      

 7.9          0.79131     -167.9        0.35493     -57.664       0.34837     -61.529       0.35486     -57.671      
              0.35493     -57.664       0.72149      173.39       0.24668     -50.233       0.53926     -82.757      
              0.34837     -61.529       0.24668     -50.233       0.86987     -170.03       0.24602     -49.989      
              0.35486     -57.671       0.53926     -82.757       0.24602     -49.989       0.72176      173.45      

 7.95         0.7927      -167.98       0.35392     -57.927       0.34727     -61.827       0.35383     -57.933      
              0.35392     -57.927       0.71777      172.63       0.24451     -50.415       0.54575     -83.758      
              0.34727     -61.827       0.24451     -50.415       0.87154     -170.17       0.24384     -50.164      
              0.35383     -57.933       0.54575     -83.758       0.24384     -50.164       0.71804      172.69      

 8            0.79409     -168.05       0.35291     -58.188       0.34618     -62.124       0.35282     -58.194      
              0.35291     -58.188       0.7136       171.82       0.24234     -50.596       0.5527      -84.802      
              0.34618     -62.124       0.24234     -50.596       0.87318     -170.31       0.24167     -50.336      
              0.35282     -58.194       0.5527      -84.802       0.24167     -50.336       0.71387      171.88      

 8.05         0.79546     -168.13       0.3519      -58.449       0.34508     -62.421       0.3518      -58.454      
              0.3519      -58.449       0.70892      170.96       0.24017     -50.775       0.56015     -85.893      
              0.34508     -62.421       0.24017     -50.775       0.87481     -170.44       0.23949     -50.507      
              0.3518      -58.454       0.56015     -85.893       0.23949     -50.507       0.7092       171.02      

 8.1          0.79682     -168.21       0.3509      -58.709       0.34399     -62.717       0.35079     -58.713      
              0.3509      -58.709       0.70368      170.04       0.238       -50.952       0.56813     -87.035      
              0.34399     -62.717       0.238       -50.952       0.87642     -170.58       0.23732     -50.675      
              0.35079     -58.713       0.56813     -87.035       0.23732     -50.675       0.70396      170.11      

 8.15         0.79816     -168.29       0.3499      -58.968       0.34291     -63.012       0.34979     -58.972      
              0.3499      -58.968       0.6978       169.07       0.23583     -51.127       0.5767      -88.234      
              0.34291     -63.012       0.23583     -51.127       0.87802     -170.72       0.23515     -50.84       
              0.34979     -58.972       0.5767      -88.234       0.23515     -50.84        0.69808      169.14      

 8.2          0.79949     -168.36       0.34891     -59.226       0.34183     -63.307       0.34879     -59.229      
              0.34891     -59.226       0.6912       168.02       0.23366     -51.3         0.58591     -89.496      
              0.34183     -63.307       0.23366     -51.3         0.8796      -170.87       0.23297     -51.002      
              0.34879     -59.229       0.58591     -89.496       0.23297     -51.002       0.69149      168.09      

 8.25         0.80082     -168.44       0.34792     -59.483       0.34075     -63.601       0.3478      -59.486      
              0.34792     -59.483       0.68379      166.9        0.23148     -51.471       0.5958      -90.828      
              0.34075     -63.601       0.23148     -51.471       0.88116     -171.01       0.2308      -51.162      
              0.3478      -59.486       0.5958      -90.828       0.2308      -51.162       0.68409      166.97      

 8.3          0.80213     -168.52       0.34694     -59.74        0.33968     -63.895       0.34681     -59.741      
              0.34694     -59.74        0.67546      165.69       0.22931     -51.64        0.60644     -92.238      
              0.33968     -63.895       0.22931     -51.64        0.88271     -171.15       0.22863     -51.32       
              0.34681     -59.741       0.60644     -92.238       0.22863     -51.32        0.67576      165.77      

 8.35         0.80342     -168.6        0.34597     -59.996       0.33861     -64.188       0.34582     -59.996      
              0.34597     -59.996       0.66607      164.39       0.22713     -51.807       0.6179      -93.735      
              0.33861     -64.188       0.22713     -51.807       0.88424     -171.29       0.22646     -51.474      
              0.34582     -59.996       0.6179      -93.735       0.22646     -51.474       0.66638      164.46      

 8.4          0.80471     -168.68       0.345       -60.251       0.33754     -64.481       0.34484     -60.25       
              0.345       -60.251       0.65546      162.98       0.22496     -51.972       0.63023     -95.329      
              0.33754     -64.481       0.22496     -51.972       0.88575     -171.44       0.22429     -51.626      
              0.34484     -60.25        0.63023     -95.329       0.22429     -51.626       0.65578      163.05      

 8.45         0.80598     -168.75       0.34403     -60.505       0.33648     -64.773       0.34386     -60.502      
              0.34403     -60.505       0.64346      161.44       0.22278     -52.135       0.64351     -97.032      
              0.33648     -64.773       0.22278     -52.135       0.88725     -171.58       0.22212     -51.775      
              0.34386     -60.502       0.64351     -97.032       0.22212     -51.775       0.64378      161.52      

 8.5          0.80724     -168.83       0.34307     -60.759       0.33543     -65.065       0.34289     -60.754      
              0.34307     -60.759       0.62985      159.76       0.2206      -52.297       0.65781     -98.857      
              0.33543     -65.065       0.2206      -52.297       0.88874     -171.73       0.21995     -51.92       
              0.34289     -60.754       0.65781     -98.857       0.21995     -51.92        0.63017      159.84      

 8.55         0.8085      -168.91       0.34212     -61.012       0.33437     -65.357       0.34193     -61.005      
              0.34212     -61.012       0.61435      157.91       0.21842     -52.456       0.67319     -100.82      
              0.33437     -65.357       0.21842     -52.456       0.8902      -171.87       0.21779     -52.063      
              0.34193     -61.005       0.67319     -100.82       0.21779     -52.063       0.61469      158         

 8.6          0.80973     -168.99       0.34117     -61.264       0.33332     -65.648       0.34096     -61.255      
              0.34117     -61.264       0.59668      155.88       0.21623     -52.613       0.68973     -102.94      
              0.33332     -65.648       0.21623     -52.613       0.89165     -172.02       0.21563     -52.202      
              0.34096     -61.255       0.68973     -102.94       0.21563     -52.202       0.59702      155.97      

 8.65         0.81096     -169.07       0.34023     -61.516       0.33228     -65.938       0.34001     -61.504      
              0.34023     -61.516       0.57645      153.63       0.21404     -52.769       0.70746     -105.24      
              0.33228     -65.938       0.21404     -52.769       0.89309     -172.17       0.21347     -52.338      
              0.34001     -61.504       0.70746     -105.24       0.21347     -52.338       0.5768       153.72      

 8.7          0.81218     -169.15       0.33929     -61.767       0.33124     -66.228       0.33905     -61.752      
              0.33929     -61.767       0.55324      151.12       0.21185     -52.922       0.72642     -107.74      
              0.33124     -66.228       0.21185     -52.922       0.89451     -172.32       0.21131     -52.471      
              0.33905     -61.752       0.72642     -107.74       0.21131     -52.471       0.5536       151.21      

 8.75         0.81338     -169.23       0.33836     -62.018       0.3302      -66.518       0.33811     -61.998      
              0.33836     -62.018       0.52653      148.3        0.20965     -53.074       0.74658     -110.47      
              0.3302      -66.518       0.20965     -53.074       0.89592     -172.46       0.20916     -52.601      
              0.33811     -61.998       0.74658     -110.47       0.20916     -52.601       0.52689      148.4       

 8.8          0.81458     -169.31       0.33743     -62.269       0.32917     -66.807       0.33716     -62.244      
              0.33743     -62.269       0.49573      145.12       0.20745     -53.222       0.76785     -113.46      
              0.32917     -66.807       0.20745     -53.222       0.8973      -172.61       0.20701     -52.727      
              0.33716     -62.244       0.76785     -113.46       0.20701     -52.727       0.4961       145.22      

 8.85         0.81576     -169.39       0.3365      -62.519       0.32814     -67.097       0.33623     -62.489      
              0.3365      -62.519       0.46016      141.48       0.20524     -53.369       0.79007     -116.75      
              0.32814     -67.097       0.20524     -53.369       0.89868     -172.76       0.20487     -52.85       
              0.33623     -62.489       0.79007     -116.75       0.20487     -52.85        0.46054      141.6       

 8.9          0.81694     -169.47       0.33558     -62.77        0.32712     -67.385       0.3353      -62.732      
              0.33558     -62.77        0.41909      137.28       0.20302     -53.512       0.81289     -120.37      
              0.32712     -67.385       0.20302     -53.512       0.90004     -172.92       0.20273     -52.97       
              0.3353      -62.732       0.81289     -120.37       0.20273     -52.97        0.41947      137.4       

 8.95         0.8181      -169.55       0.33467     -63.02        0.3261      -67.674       0.33437     -62.974      
              0.33467     -63.02        0.37175      132.32       0.20079     -53.653       0.8358      -124.37      
              0.3261      -67.674       0.20079     -53.653       0.90138     -173.07       0.20061     -53.088      
              0.33437     -62.974       0.8358      -124.37       0.20061     -53.088       0.37213      132.47      

 9            0.81925     -169.63       0.33375     -63.269       0.32508     -67.962       0.33346     -63.215      
              0.33375     -63.269       0.31747      126.31       0.19855     -53.789       0.858       -128.78      
              0.32508     -67.962       0.19855     -53.789       0.90271     -173.22       0.19849     -53.203      
              0.33346     -63.215       0.858       -128.78       0.19849     -53.203       0.31783      126.47      

