!AWR Design Environment (4254) Tue Jan 20 11:18:40 2009
!
!freq-unit  param-type  data-format  keyword  impedance-ohms
# GHz           S          MA           R         50
!-----------------------------------------------------------------------------
 0.0          0.00 	-86.491       0.0   89.637       0.0    90.213       18     -0.11063     
              0    	87.754       0.0   -89.093      
              0.00 	 89.637       0.0  -88.375       0.0   89.637       0.0    87.755      
              1     -0.11608      0.0   87.755      
              0    90.213       0.000   89.637       0.0  -86.491       0.0   -89.093      
              0    87.754       1     -0.11063     
              1    -0.11063      0.0    87.737       0.0   -89.092       0.0 -87.223      
              0.00  89.701       0.0   90.44       
              0.00    87.771       1     -0.11608      0.0    87.771       0.00   89.7        
              0.00 -88.763       0.0   89.7        
              0   -89.092       0.0    87.737       1    -0.11063      0.0    90.44       
              0.0  89.701       0.0  -87.223      




0.1          0.00010159  -86.491       0.00054311   89.637       9.6199e-5    90.213       0.99998     -0.11063     
              9.1176e-5    87.754       5.5357e-5   -89.093      
              0.00054409   89.637       0.00020822  -88.375       0.00054409   89.637       9.2147e-5    87.755      
              0.99998     -0.11608      9.2147e-5    87.755      
              9.6199e-5    90.213       0.00054311   89.637       0.00010159  -86.491       5.5357e-5   -89.093      
              9.1176e-5    87.754       0.99998     -0.11063     
              0.99998     -0.11063      9.1175e-5    87.737       5.5357e-5   -89.092       0.00010145  -87.223      
              0.00054313   89.701       9.6214e-5    90.44       
              9.2149e-5    87.771       0.99998     -0.11608      9.2149e-5    87.771       0.00054411   89.7        
              0.00020812  -88.763       0.00054411   89.7        
              5.5357e-5   -89.092       9.1175e-5    87.737       0.99998     -0.11063      9.6214e-5    90.44       
              0.00054313   89.701       0.00010145  -87.223      

 0.2          0.00030857  -88.825       0.0010774    89.468       0.00019104   89.897       0.99997     -0.2152      
              0.0001911    87.79        0.00010935  -89.554      
              0.0010794    89.467       0.00051782  -89.476       0.0010794    89.467       0.00019303   87.776      
              0.99997     -0.22635      0.00019303   87.776      
              0.00019104   89.897       0.0010774    89.468       0.00030857  -88.825       0.00010935  -89.554      
              0.0001911    87.79        0.99997     -0.2152      
              0.99997     -0.2152       0.0001911    87.765       0.00010935  -89.554       0.00030832  -89.661      
              0.0010775    89.606       0.00019109   90.365      
              0.00019304   87.802       0.99997     -0.22635      0.00019304   87.802       0.0010794    89.604      
              0.00051761  -90.023       0.0010794    89.604      
              0.00010935  -89.554       0.0001911    87.765       0.99997     -0.2152       0.00019109   90.365      
              0.0010775    89.606       0.00030832  -89.661      

 0.3          0.00050173  -89.377       0.0016113    89.309       0.0002848    89.638       0.99996     -0.32058     
              0.00029145   87.718       0.00016225  -89.924      
              0.0016142    89.308       0.00081553  -89.853       0.0016142    89.308       0.00029433   87.692      
              0.99995     -0.3373       0.00029433   87.692      
              0.0002848    89.638       0.0016113    89.309       0.00050173  -89.377       0.00016225  -89.924      
              0.00029145   87.718       0.99996     -0.32058     
              0.99996     -0.32058      0.00029144   87.682       0.00016225  -89.923       0.00050132  -90.485      
              0.0016115    89.518       0.0002849    90.344      
              0.00029434   87.727       0.99995     -0.3373       0.00029434   87.727       0.0016144    89.516      
              0.00081519  -90.605       0.0016144    89.516      
              0.00016225  -89.923       0.00029144   87.682       0.99996     -0.32058      0.0002849    90.344      
              0.0016115    89.518       0.00050132  -90.485      

 0.4          0.00069034  -89.655       0.0021457    89.155       0.00037861   89.408       0.99995     -0.42621     
              0.00039135   87.6         0.0002152   -90.247      
              0.0021495    89.154       0.0011089   -90.078       0.0021495    89.154       0.00039518   87.563      
              0.99994     -0.4485       0.00039518   87.563      
              0.00037861   89.408       0.0021457    89.155       0.00069034  -89.655       0.0002152   -90.247      
              0.00039135   87.6         0.99995     -0.42621     
              0.99995     -0.42621      0.00039134   87.554       0.0002152   -90.247       0.00068977  -91.061      
              0.0021459    89.435       0.00037878   90.35       
              0.00039519   87.609       0.99994     -0.4485       0.00039519   87.609       0.0021497    89.433      
              0.0011084   -91.043       0.0021497    89.433      
              0.0002152   -90.247       0.00039134   87.554       0.99995     -0.42621      0.00037878   90.35       
              0.0021459    89.435       0.00068977  -91.061      

 0.5          0.00087688  -89.828       0.0026803    89.003       0.00047256   89.192       0.99994     -0.53196     
              0.0004909    87.464       0.00026828  -90.547      
              0.0026851    89.003       0.0014003   -90.237       0.0026851    89.003       0.00049568   87.417      
              0.99993     -0.55981      0.00049568   87.417      
              0.00047256   89.192       0.0026803    89.003       0.00087688  -89.828       0.00026828  -90.547      
              0.0004909    87.464       0.99994     -0.53196     
              0.99994     -0.53196      0.00049089   87.407       0.00026828  -90.546       0.00087617  -91.54       
              0.0026806    89.354       0.00047281   90.37       
              0.0004957    87.473       0.99993     -0.55981      0.0004957    87.473       0.0026854    89.352      
              0.0013997   -91.421       0.0026854    89.352      
              0.00026828  -90.546       0.00049089   87.407       0.99994     -0.53196      0.00047281   90.37       
              0.0026806    89.354       0.00087617  -91.54       

 0.6          0.0010624   -89.944       0.0032152    88.853       0.00056663   88.984       0.99993     -0.63777     
              0.00059023   87.318       0.00032146  -90.832      
              0.0032209    88.853       0.0016906   -90.36        0.0032209    88.853       0.00059595   87.261      
              0.99991     -0.67118      0.00059595   87.261      
              0.00056663   88.984       0.0032152    88.853       0.0010624   -89.944       0.00032146  -90.832      
              0.00059023   87.318       0.99993     -0.63777     
              0.99993     -0.63777      0.00059021   87.251       0.00032146  -90.831       0.0010615   -91.967      
              0.0032156    89.274       0.00056698   90.399      
              0.00059597   87.328       0.99991     -0.67118      0.00059597   87.328       0.0032213    89.272      
              0.0016899   -91.764       0.0032213    89.272      
              0.00032146  -90.831       0.00059021   87.251       0.99993     -0.63777      0.00056698   90.399      
              0.0032156    89.274       0.0010615   -91.967      

 0.7          0.0012472   -90.026       0.0037502    88.704       0.00066079   88.782       0.99992     -0.74362     
              0.0006894    87.167       0.00037472  -91.109      
              0.0037568    88.704       0.0019804   -90.461       0.0037568    88.704       0.00069607   87.1        
              0.9999      -0.78258      0.00069607   87.1        
              0.00066079   88.782       0.0037502    88.704       0.0012472   -90.026       0.00037472  -91.109      
              0.0006894    87.167       0.99992     -0.74362     
              0.99992     -0.74362      0.00068938   87.089       0.00037472  -91.107       0.0012463   -92.361      
              0.0037506    89.195       0.00066126   90.432      
              0.00069609   87.177       0.9999      -0.78258      0.00069609   87.177       0.0037573    89.193      
              0.0019796   -92.086       0.0037573    89.193      
              0.00037472  -91.107       0.00068938   87.089       0.99992     -0.74362      0.00066126   90.432      
              0.0037506    89.195       0.0012463   -92.361      

 0.8          0.0014318   -90.084       0.0042852    88.555       0.00075502   88.583       0.99991     -0.84949     
              0.00078847   87.013       0.00042803  -91.379      
              0.0042929    88.555       0.0022697   -90.546       0.0042929    88.555       0.00079607   86.936      
              0.99988     -0.894        0.00079607   86.936      
              0.00075502   88.583       0.0042852    88.555       0.0014318   -90.084       0.00042803  -91.379      
              0.00078847   87.013       0.99991     -0.84949     
              0.99991     -0.84949      0.00078844   86.925       0.00042803  -91.377       0.0014308   -92.734      
              0.0042858    89.117       0.00075564   90.468      
              0.0007961    87.024       0.99988     -0.894        0.0007961    87.024       0.0042935    89.114      
              0.0022689   -92.394       0.0042935    89.114      
              0.00042803  -91.377       0.00078844   86.925       0.99991     -0.84949      0.00075564   90.468      
              0.0042858    89.117       0.0014308   -92.734      

 0.9          0.0016161   -90.127       0.0048204    88.406       0.0008493    88.386       0.99989     -0.95537     
              0.00088745   86.858       0.00048138  -91.646      
              0.0048289    88.406       0.0025589   -90.621       0.0048289    88.406       0.00089599   86.769      
              0.99987     -1.0054       0.00089599   86.769      
              0.0008493    88.386       0.0048204    88.406       0.0016161   -90.127       0.00048138  -91.646      
              0.00088745   86.858       0.99989     -0.95537     
              0.99989     -0.95537      0.00088742   86.758       0.00048138  -91.644       0.001615    -93.091      
              0.0048211    89.038       0.00085009   90.507      
              0.00089602   86.868       0.99987     -1.0054       0.00089602   86.868       0.0048296    89.035      
              0.002558    -92.691       0.0048296    89.035      
              0.00048138  -91.644       0.00088742   86.758       0.99989     -0.95537      0.00085009   90.507      
              0.0048211    89.038       0.001615    -93.091      

 1            0.0018003   -90.157       0.0053555    88.258       0.00094363   88.191       0.99988     -1.0613      
              0.00098638   86.7         0.00053476  -91.909      
              0.0053651    88.258       0.0028479   -90.688       0.0053651    88.258       0.00099585   86.602      
              0.99985     -1.1169       0.00099585   86.602      
              0.00094363   88.191       0.0053555    88.258       0.0018003   -90.157       0.00053476  -91.909      
              0.00098638   86.7         0.99988     -1.0613      
              0.99988     -1.0613       0.00098634   86.59        0.00053476  -91.907       0.0017992   -93.436      
              0.0053564    88.96        0.00094461   90.548      
              0.00099588   86.711       0.99985     -1.1169       0.00099588   86.711       0.0053659    88.957      
              0.0028471   -92.98        0.0053659    88.957      
              0.00053476  -91.907       0.00098634   86.59        0.99988     -1.0613       0.00094461   90.548      
              0.0053564    88.96        0.0017992   -93.436      

 1.1          0.0019844   -90.178       0.0058907    88.11        0.001038     87.998       0.99987     -1.1671      
              0.0010853    86.542       0.00058816  -92.17       
              0.0059012    88.11        0.0031368   -90.748       0.0059012    88.11        0.0010957    86.433      
              0.99984     -1.2283       0.0010957    86.433      
              0.001038     87.998       0.0058907    88.11        0.0019844   -90.178       0.00058816  -92.17       
              0.0010853    86.542       0.99987     -1.1671      
              0.99987     -1.1671       0.0010852    86.421       0.00058816  -92.167       0.0019833   -93.772      
              0.0058917    88.882       0.0010392    90.589      
              0.0010957    86.554       0.99984     -1.2283       0.0010957    86.554       0.0059021    88.879      
              0.003136    -93.263       0.0059021    88.879      
              0.00058816  -92.167       0.0010852    86.421       0.99987     -1.1671       0.0010392    90.589      
              0.0058917    88.882       0.0019833   -93.772      

 1.2          0.0021684   -90.192       0.006426     87.962       0.0011324    87.805       0.99986     -1.273       
              0.0011841    86.383       0.00064158  -92.429      
              0.0064373    87.962       0.0034256   -90.804       0.0064373    87.962       0.0011954    86.264      
              0.99982     -1.3397       0.0011954    86.264      
              0.0011324    87.805       0.006426     87.962       0.0021684   -90.192       0.00064158  -92.429      
              0.0011841    86.383       0.99986     -1.273       
              0.99986     -1.273        0.001184     86.251       0.00064158  -92.426       0.0021675   -94.101      
              0.006427     88.804       0.0011339    90.632      
              0.0011955    86.395       0.99982     -1.3397       0.0011955    86.395       0.0064384    88.801      
              0.003425    -93.541       0.0064384    88.801      
              0.00064158  -92.426       0.001184     86.251       0.99986     -1.273        0.0011339    90.632      
              0.006427     88.804       0.0021675   -94.101      

 1.3          0.0023524   -90.2         0.0069612    87.814       0.0012269    87.614       0.99985     -1.3789      
              0.0012829    86.223       0.00069501  -92.686      
              0.0069735    87.815       0.0037143   -90.855       0.0069735    87.815       0.0012951    86.094      
              0.9998      -1.4512       0.0012951    86.094      
              0.0012269    87.614       0.0069612    87.814       0.0023524   -90.2         0.00069501  -92.686      
              0.0012829    86.223       0.99985     -1.3789      
              0.99985     -1.3789       0.0012828    86.08        0.00069501  -92.683       0.0023516   -94.424      
              0.0069624    88.726       0.0012286    90.675      
              0.0012952    86.236       0.9998      -1.4512       0.0012952    86.236       0.0069746    88.723      
              0.0037139   -93.816       0.0069746    88.723      
              0.00069501  -92.683       0.0012828    86.08        0.99985     -1.3789       0.0012286    90.675      
              0.0069624    88.726       0.0023516   -94.424      

 1.4          0.0025364   -90.203       0.0074964    87.666       0.0013214    87.422       0.99983     -1.4848      
              0.0013817    86.063       0.00074844  -92.943      
              0.0075096    87.667       0.004003    -90.904       0.0075096    87.667       0.0013948    85.923      
              0.99978     -1.5626       0.0013948    85.923      
              0.0013214    87.422       0.0074964    87.666       0.0025364   -90.203       0.00074844  -92.943      
              0.0013817    86.063       0.99983     -1.4848      
              0.99983     -1.4848       0.0013816    85.909       0.00074844  -92.939       0.0025358   -94.743      
              0.0074977    88.648       0.0013234    90.72       
              0.0013949    86.076       0.99978     -1.5626       0.0013949    86.076       0.0075109    88.645      
              0.0040029   -94.087       0.0075109    88.645      
              0.00074844  -92.939       0.0013816    85.909       0.99983     -1.4848       0.0013234    90.72       
              0.0074977    88.648       0.0025358   -94.743      

 1.5          0.0027204   -90.202       0.0080317    87.518       0.0014159    87.232       0.99982     -1.5907      
              0.0014804    85.902       0.00080188  -93.198      
              0.0080458    87.519       0.0042916   -90.949       0.0080458    87.519       0.0014945    85.752      
              0.99977     -1.6741       0.0014945    85.752      
              0.0014159    87.232       0.0080317    87.518       0.0027204   -90.202       0.00080188  -93.198      
              0.0014804    85.902       0.99982     -1.5907      
              0.99982     -1.5907       0.0014804    85.738       0.00080189  -93.194       0.00272     -95.057      
              0.0080331    88.571       0.0014182    90.764      
              0.0014945    85.916       0.99977     -1.6741       0.0014945    85.916       0.0080472    88.567      
              0.0042918   -94.355       0.0080472    88.567      
              0.00080189  -93.194       0.0014804    85.738       0.99982     -1.5907       0.0014182    90.764      
              0.0080331    88.571       0.00272     -95.057      

 1.6          0.0029044   -90.198       0.0085669    87.371       0.0015104    87.041       0.99981     -1.6966      
              0.0015791    85.741       0.00085533  -93.452      
              0.0085819    87.372       0.0045802   -90.993       0.0085819    87.372       0.0015941    85.581      
              0.99975     -1.7855       0.0015941    85.581      
              0.0015104    87.041       0.0085669    87.371       0.0029044   -90.198       0.00085533  -93.452      
              0.0015791    85.741       0.99981     -1.6966      
              0.99981     -1.6966       0.0015791    85.566       0.00085533  -93.448       0.0029043   -95.369      
              0.0085684    88.493       0.0015132    90.81       
              0.0015942    85.755       0.99975     -1.7855       0.0015942    85.755       0.0085834    88.489      
              0.0045808   -94.622       0.0085834    88.489      
              0.00085533  -93.448       0.0015791    85.566       0.99981     -1.6966       0.0015132    90.81       
              0.0085684    88.493       0.0029043   -95.369      

 1.7          0.0030884   -90.191       0.0091021    87.223       0.001605     86.851       0.9998      -1.8025      
              0.0016778    85.58        0.00090878  -93.706      
              0.0091181    87.224       0.0048688   -91.034       0.0091181    87.224       0.0016937    85.41       
              0.99973     -1.8969       0.0016937    85.41       
              0.001605     86.851       0.0091021    87.223       0.0030884   -90.191       0.00090878  -93.706      
              0.0016778    85.58        0.9998      -1.8025      
              0.9998      -1.8025       0.0016778    85.394       0.00090878  -93.702       0.0030886   -95.677      
              0.0091038    88.416       0.0016082    90.855      
              0.0016938    85.594       0.99973     -1.8969       0.0016938    85.594       0.0091197    88.412      
              0.0048698   -94.886       0.0091197    88.412      
              0.00090878  -93.702       0.0016778    85.394       0.9998      -1.8025       0.0016082    90.855      
              0.0091038    88.416       0.0030886   -95.677      

 1.8          0.0032724   -90.182       0.0096374    87.075       0.0016997    86.662       0.99978     -1.9084      
              0.0017765    85.419       0.00096223  -93.959      
              0.0096542    87.077       0.0051573   -91.074       0.0096542    87.077       0.0017933    85.238      
              0.99971     -2.0084       0.0017933    85.238      
              0.0016997    86.662       0.0096374    87.075       0.0032724   -90.182       0.00096223  -93.959      
              0.0017765    85.419       0.99978     -1.9084      
              0.99978     -1.9084       0.0017765    85.222       0.00096223  -93.955       0.003273    -95.983      
              0.0096391    88.338       0.0017032    90.901      
              0.0017934    85.433       0.99971     -2.0084       0.0017934    85.433       0.0096559    88.334      
              0.0051589   -95.148       0.0096559    88.334      
              0.00096223  -93.955       0.0017765    85.222       0.99978     -1.9084       0.0017032    90.901      
              0.0096391    88.338       0.003273    -95.983      

 1.9          0.0034564   -90.17        0.010173     86.928       0.0017943    86.472       0.99977     -2.0143      
              0.0018752    85.257       0.0010157   -94.211      
              0.01019      86.929       0.0054458   -91.112       0.01019      86.929       0.0018928    85.066      
              0.99968     -2.1198       0.0018928    85.066      
              0.0017943    86.472       0.010173     86.928       0.0034564   -90.17        0.0010157   -94.211      
              0.0018752    85.257       0.99977     -2.0143      
              0.99977     -2.0143       0.0018751    85.05        0.0010157   -94.207       0.0034575   -96.286      
              0.010174     88.261       0.0017984    90.947      
              0.0018929    85.272       0.99968     -2.1198       0.0018929    85.272       0.010192     88.257      
              0.005448    -95.409       0.010192     88.257      
              0.0010157   -94.207       0.0018751    85.05        0.99977     -2.0143       0.0017984    90.947      
              0.010174     88.261       0.0034575   -96.286      

 2            0.0036404   -90.157       0.010708     86.78        0.001889     86.283       0.99975     -2.1202      
              0.0019738    85.095       0.0010691   -94.463      
              0.010726     86.782       0.0057342   -91.149       0.010726     86.782       0.0019924    84.894      
              0.99966     -2.2312       0.0019924    84.894      
              0.001889     86.283       0.010708     86.78        0.0036404   -90.157       0.0010691   -94.463      
              0.0019738    85.095       0.99975     -2.1202      
              0.99975     -2.1202       0.0019738    84.877       0.0010691   -94.459       0.003642    -96.588      
              0.01071      88.183       0.0018936    90.994      
              0.0019924    85.111       0.99966     -2.2312       0.0019924    85.111       0.010728     88.179      
              0.0057371   -95.669       0.010728     88.179      
              0.0010691   -94.459       0.0019738    84.877       0.99975     -2.1202       0.0018936    90.994      
              0.01071      88.183       0.003642    -96.588      

 2.1          0.0038245   -90.142       0.011243     86.633       0.0019838    86.094       0.99974     -2.2261      
              0.0020724    84.933       0.0011226   -94.715      
              0.011263     86.635       0.0060226   -91.185       0.011263     86.635       0.0020919    84.722      
              0.99964     -2.3426       0.0020919    84.722      
              0.0019838    86.094       0.011243     86.633       0.0038245   -90.142       0.0011226   -94.715      
              0.0020724    84.933       0.99974     -2.2261      
              0.99974     -2.2261       0.0020724    84.704       0.0011226   -94.71        0.0038267   -96.888      
              0.011245     88.106       0.0019889    91.041      
              0.0020919    84.949       0.99964     -2.3426       0.0020919    84.949       0.011264     88.102      
              0.0060263   -95.928       0.011264     88.102      
              0.0011226   -94.71        0.0020724    84.704       0.99974     -2.2261       0.0019889    91.041      
              0.011245     88.106       0.0038267   -96.888      

 2.2          0.0040085   -90.126       0.011778     86.485       0.0020786    85.904       0.99972     -2.332       
              0.002171     84.772       0.001176    -94.966      
              0.011799     86.487       0.0063109   -91.22        0.011799     86.487       0.0021913    84.549      
              0.99962     -2.454        0.0021913    84.549      
              0.0020786    85.904       0.011778     86.485       0.0040085   -90.126       0.001176    -94.966      
              0.002171     84.772       0.99972     -2.332       
              0.99973     -2.332        0.002171     84.532       0.001176    -94.961       0.0040114   -97.186      
              0.01178      88.029       0.0020843    91.088      
              0.0021914    84.788       0.99962     -2.454        0.0021914    84.788       0.011801     88.024      
              0.0063156   -96.185       0.011801     88.024      
              0.001176    -94.961       0.002171     84.532       0.99973     -2.332        0.0020843    91.088      
              0.01178      88.029       0.0040114   -97.186      

 2.3          0.0041926   -90.108       0.012314     86.338       0.0021734    85.715       0.99971     -2.4378      
              0.0022696    84.609       0.0012295   -95.217      
              0.012335     86.34        0.0065992   -91.254       0.012335     86.34        0.0022908    84.377      
              0.99959     -2.5655       0.0022908    84.377      
              0.0021734    85.715       0.012314     86.338       0.0041926   -90.108       0.0012295   -95.217      
              0.0022696    84.609       0.99971     -2.4378      
              0.99971     -2.4378       0.0022696    84.359       0.0012295   -95.212       0.0041962   -97.483      
              0.012316     87.952       0.0021797    91.135      
              0.0022908    84.626       0.99959     -2.5655       0.0022908    84.626       0.012337     87.947      
              0.0066048   -96.442       0.012337     87.947      
              0.0012295   -95.212       0.0022696    84.359       0.99971     -2.4378       0.0021797    91.135      
              0.012316     87.952       0.0041962   -97.483      

 2.4          0.0043767   -90.09        0.012849     86.19        0.0022683    85.526       0.99969     -2.5437      
              0.0023682    84.447       0.0012829   -95.468      
              0.012871     86.192       0.0068874   -91.287       0.012871     86.192       0.0023902    84.204      
              0.99957     -2.6769       0.0023902    84.204      
              0.0022683    85.526       0.012849     86.19        0.0043767   -90.09        0.0012829   -95.468      
              0.0023682    84.447       0.99969     -2.5437      
              0.99969     -2.5437       0.0023681    84.186       0.0012829   -95.462       0.0043811   -97.779      
              0.012851     87.874       0.0022753    91.182      
              0.0023902    84.465       0.99957     -2.6769       0.0023902    84.465       0.012873     87.869      
              0.0068941   -96.698       0.012873     87.869      
              0.0012829   -95.462       0.0023681    84.186       0.99969     -2.5437       0.0022753    91.182      
              0.012851     87.874       0.0043811   -97.779      

 2.5          0.0045608   -90.07        0.013384     86.042       0.0023632    85.337       0.99968     -2.6496      
              0.0024667    84.285       0.0013364   -95.718      
              0.013407     86.045       0.0071755   -91.319       0.013407     86.045       0.0024895    84.032      
              0.99954     -2.7883       0.0024895    84.032      
              0.0023632    85.337       0.013384     86.042       0.0045608   -90.07        0.0013364   -95.718      
              0.0024667    84.285       0.99968     -2.6496      
              0.99968     -2.6496       0.0024667    84.013       0.0013364   -95.712       0.0045661   -98.073      
              0.013386     87.797       0.002371     91.23       
              0.0024896    84.303       0.99954     -2.7883       0.0024896    84.303       0.013409     87.792      
              0.0071835   -96.953       0.013409     87.792      
              0.0013364   -95.712       0.0024667    84.013       0.99968     -2.6496       0.002371     91.23       
              0.013386     87.797       0.0045661   -98.073      

 2.6          0.0047449   -90.049       0.013919     85.895       0.0024582    85.148       0.99966     -2.7555      
              0.0025652    84.123       0.0013898   -95.969      
              0.013943     85.898       0.0074636   -91.351       0.013943     85.898       0.0025889    83.859      
              0.99952     -2.8997       0.0025889    83.859      
              0.0024582    85.148       0.013919     85.895       0.0047449   -90.049       0.0013898   -95.969      
              0.0025652    84.123       0.99966     -2.7555      
              0.99966     -2.7555       0.0025652    83.839       0.0013898   -95.962       0.0047512   -98.367      
              0.013921     87.72        0.0024667    91.278      
              0.0025889    84.141       0.99952     -2.8997       0.0025889    84.141       0.013945     87.715      
              0.0074729   -97.208       0.013945     87.715      
              0.0013898   -95.962       0.0025652    83.839       0.99966     -2.7555       0.0024667    91.278      
              0.013921     87.72        0.0047512   -98.367      

 2.7          0.004929    -90.028       0.014454     85.747       0.0025532    84.959       0.99965     -2.8614      
              0.0026637    83.961       0.0014432   -96.218      
              0.014479     85.75        0.0077517   -91.382       0.014479     85.75        0.0026882    83.686      
              0.99949     -3.0111       0.0026882    83.686      
              0.0025532    84.959       0.014454     85.747       0.004929    -90.028       0.0014432   -96.218      
              0.0026637    83.961       0.99965     -2.8614      
              0.99965     -2.8614       0.0026637    83.666       0.0014432   -96.212       0.0049364   -98.66       
              0.014457     87.643       0.0025626    91.326      
              0.0026882    83.979       0.99949     -3.0111       0.0026882    83.979       0.014481     87.638      
              0.0077624   -97.462       0.014481     87.638      
              0.0014432   -96.212       0.0026637    83.666       0.99965     -2.8614       0.0025626    91.326      
              0.014457     87.643       0.0049364   -98.66       

 2.8          0.0051131   -90.006       0.01499      85.6         0.0026483    84.769       0.99963     -2.9673      
              0.0027621    83.798       0.0014967   -96.468      
              0.015015     85.603       0.0080396   -91.413       0.015015     85.603       0.0027875    83.513      
              0.99947     -3.1225       0.0027875    83.513      
              0.0026483    84.769       0.01499      85.6         0.0051131   -90.006       0.0014967   -96.468      
              0.0027621    83.798       0.99963     -2.9673      
              0.99963     -2.9673       0.0027622    83.493       0.0014967   -96.462       0.0051217   -98.952      
              0.014992     87.566       0.0026585    91.374      
              0.0027875    83.817       0.99947     -3.1225       0.0027875    83.817       0.015017     87.561      
              0.0080519   -97.715       0.015017     87.561      
              0.0014967   -96.462       0.0027622    83.493       0.99963     -2.9673       0.0026585    91.374      
              0.014992     87.566       0.0051217   -98.952      

 2.9          0.0052973   -89.983       0.015525     85.452       0.0027434    84.58        0.99961     -3.0731      
              0.0028606    83.636       0.0015501   -96.718      
              0.015551     85.455       0.0083275   -91.443       0.015551     85.455       0.0028868    83.34       
              0.99944     -3.2339       0.0028868    83.34       
              0.0027434    84.58        0.015525     85.452       0.0052973   -89.983       0.0015501   -96.718      
              0.0028606    83.636       0.99961     -3.0731      
              0.99961     -3.0731       0.0028606    83.319       0.0015501   -96.711       0.005307    -99.243      
              0.015527     87.489       0.0027546    91.422      
              0.0028867    83.655       0.99944     -3.2339       0.0028867    83.655       0.015553     87.484      
              0.0083414   -97.968       0.015553     87.484      
              0.0015501   -96.711       0.0028606    83.319       0.99961     -3.0731       0.0027546    91.422      
              0.015527     87.489       0.005307    -99.243      

 3            0.0054814   -89.96        0.01606      85.305       0.0028386    84.391       0.9996      -3.179       
              0.002959     83.474       0.0016035   -96.967      
              0.016087     85.308       0.0086153   -91.472       0.016087     85.308       0.002986     83.167      
              0.99941     -3.3453       0.002986     83.167      
              0.0028386    84.391       0.01606      85.305       0.0054814   -89.96        0.0016035   -96.967      
              0.002959     83.474       0.9996      -3.179       
              0.9996      -3.179        0.002959     83.146       0.0016035   -96.96        0.0054925   -99.533      
              0.016062     87.412       0.0028508    91.47       
              0.0029859    83.493       0.99941     -3.3453       0.0029859    83.493       0.016089     87.406      
              0.008631    -98.221       0.016089     87.406      
              0.0016035   -96.96        0.002959     83.146       0.9996      -3.179        0.0028508    91.47       
              0.016062     87.412       0.0054925   -99.533      

 3.1          0.0056656   -89.936       0.016595     85.157       0.0029339    84.201       0.99958     -3.2849      
              0.0030574    83.311       0.0016569   -97.217      
              0.016623     85.161       0.008903    -91.502       0.016623     85.161       0.0030852    82.994      
              0.99938     -3.4567       0.0030852    82.994      
              0.0029339    84.201       0.016595     85.157       0.0056656   -89.936       0.0016569   -97.217      
              0.0030574    83.311       0.99958     -3.2849      
              0.99958     -3.2849       0.0030574    82.973       0.0016569   -97.21        0.0056781   -99.823      
              0.016597     87.335       0.0029471    91.519      
              0.0030851    83.331       0.99938     -3.4567       0.0030851    83.331       0.016625     87.329      
              0.0089206   -98.473       0.016625     87.329      
              0.0016569   -97.21        0.0030574    82.973       0.99958     -3.2849       0.0029471    91.519      
              0.016597     87.335       0.0056781   -99.823      

 3.2          0.0058497   -89.911       0.01713      85.01        0.0030292    84.011       0.99956     -3.3908      
              0.0031557    83.149       0.0017104   -97.466      
              0.017159     85.013       0.0091906   -91.53        0.017159     85.013       0.0031843    82.821      
              0.99935     -3.568        0.0031843    82.821      
              0.0030292    84.011       0.01713      85.01        0.0058497   -89.911       0.0017104   -97.466      
              0.0031557    83.149       0.99956     -3.3908      
              0.99956     -3.3908       0.0031558    82.799       0.0017104   -97.459       0.0058637   -100.11      
              0.017132     87.259       0.0030435    91.568      
              0.0031842    83.17        0.99935     -3.568        0.0031842    83.17        0.017161     87.253      
              0.0092103   -98.725       0.017161     87.253      
              0.0017104   -97.459       0.0031558    82.799       0.99956     -3.3908       0.0030435    91.568      
              0.017132     87.259       0.0058637   -100.11      

 3.3          0.0060339   -89.886       0.017665     84.862       0.0031246    83.822       0.99954     -3.4966      
              0.0032541    82.987       0.0017638   -97.715      
              0.017695     84.866       0.0094781   -91.559       0.017695     84.866       0.0032834    82.648      
              0.99932     -3.6794       0.0032834    82.648      
              0.0031246    83.822       0.017665     84.862       0.0060339   -89.886       0.0017638   -97.715      
              0.0032541    82.987       0.99954     -3.4966      
              0.99954     -3.4966       0.0032542    82.626       0.0017638   -97.708       0.0060495   -100.4       
              0.017667     87.182       0.00314      91.616      
              0.0032833    83.008       0.99932     -3.6794       0.0032833    83.008       0.017697     87.176      
              0.0095      -98.976       0.017697     87.176      
              0.0017638   -97.708       0.0032542    82.626       0.99954     -3.4966       0.00314      91.616      
              0.017667     87.182       0.0060495   -100.4       

 3.4          0.0062181   -89.861       0.018201     84.714       0.00322      83.632       0.99952     -3.6025      
              0.0033524    82.825       0.0018172   -97.964      
              0.018231     84.718       0.0097656   -91.587       0.018231     84.718       0.0033825    82.475      
              0.99929     -3.7908       0.0033825    82.475      
              0.00322      83.632       0.018201     84.714       0.0062181   -89.861       0.0018172   -97.964      
              0.0033524    82.825       0.99952     -3.6025      
              0.99952     -3.6025       0.0033525    82.452       0.0018172   -97.956       0.0062354   -100.69      
              0.018202     87.105       0.0032367    91.665      
              0.0033824    82.846       0.99929     -3.7908       0.0033824    82.846       0.018232     87.099      
              0.0097897   -99.227       0.018232     87.099      
              0.0018172   -97.956       0.0033525    82.452       0.99952     -3.6025       0.0032367    91.665      
              0.018202     87.105       0.0062354   -100.69      

 3.5          0.0064022   -89.835       0.018736     84.567       0.0033155    83.442       0.9995      -3.7084      
              0.0034506    82.662       0.0018706   -98.213      
              0.018767     84.571       0.010053    -91.614       0.018767     84.571       0.0034815    82.302      
              0.99926     -3.9022       0.0034815    82.302      
              0.0033155    83.442       0.018736     84.567       0.0064022   -89.835       0.0018706   -98.213      
              0.0034506    82.662       0.9995      -3.7084      
              0.9995      -3.7084       0.0034508    82.279       0.0018706   -98.205       0.0064213   -100.98      
              0.018738     87.028       0.0033335    91.714      
              0.0034814    82.684       0.99926     -3.9022       0.0034814    82.684       0.018768     87.022      
              0.01008     -99.478       0.018768     87.022      
              0.0018706   -98.205       0.0034508    82.279       0.9995      -3.7084       0.0033335    91.714      
              0.018738     87.028       0.0064213   -100.98      

 3.6          0.0065864   -89.808       0.019271     84.419       0.0034111    83.251       0.99949     -3.8142      
              0.0035489    82.5         0.001924    -98.462      
              0.019303     84.423       0.01034     -91.641       0.019303     84.423       0.0035805    82.129      
              0.99923     -4.0135       0.0035805    82.129      
              0.0034111    83.251       0.019271     84.419       0.0065864   -89.808       0.001924    -98.462      
              0.0035489    82.5         0.99949     -3.8142      
              0.99949     -3.8142       0.003549     82.105       0.001924    -98.454       0.0066074   -101.26      
              0.019273     86.952       0.0034304    91.764      
              0.0035803    82.522       0.99923     -4.0135       0.0035803    82.522       0.019304     86.945      
              0.010369    -99.728       0.019304     86.945      
              0.001924    -98.454       0.003549     82.105       0.99949     -3.8142       0.0034304    91.764      
              0.019273     86.952       0.0066074   -101.26      

 3.7          0.0067706   -89.781       0.019806     84.271       0.0035068    83.061       0.99947     -3.9201      
              0.0036471    82.338       0.0019774   -98.711      
              0.019838     84.275       0.010627    -91.668       0.019838     84.275       0.0036794    81.956      
              0.9992      -4.1249       0.0036794    81.956      
              0.0035068    83.061       0.019806     84.271       0.0067706   -89.781       0.0019774   -98.711      
              0.0036471    82.338       0.99947     -3.9201      
              0.99947     -3.9201       0.0036473    81.932       0.0019774   -98.703       0.0067936   -101.55      
              0.019808     86.875       0.0035275    91.813      
              0.0036792    82.36        0.99919     -4.1249       0.0036792    82.36        0.01984      86.869      
              0.010659    -99.979       0.01984      86.869      
              0.0019774   -98.703       0.0036473    81.932       0.99947     -3.9201       0.0035275    91.813      
              0.019808     86.875       0.0067936   -101.55      

 3.8          0.0069548   -89.754       0.020341     84.124       0.0036025    82.87        0.99945     -4.026       
              0.0037452    82.176       0.0020308   -98.96       
              0.020374     84.128       0.010914    -91.695       0.020374     84.128       0.0037783    81.783      
              0.99916     -4.2363       0.0037783    81.783      
              0.0036025    82.87        0.020341     84.124       0.0069548   -89.754       0.0020308   -98.96       
              0.0037452    82.176       0.99945     -4.026       
              0.99945     -4.026        0.0037455    81.758       0.0020308   -98.951       0.0069799   -101.84      
              0.020343     86.799       0.0036247    91.862      
              0.0037781    82.198       0.99916     -4.2363       0.0037781    82.198       0.020375     86.792      
              0.010949    -100.23       0.020375     86.792      
              0.0020308   -98.951       0.0037455    81.758       0.99945     -4.026        0.0036247    91.862      
              0.020343     86.799       0.0069799   -101.84      

 3.9          0.0071389   -89.727       0.020877     83.976       0.0036983    82.679       0.99943     -4.1318      
              0.0038434    82.013       0.0020842   -99.209      
              0.02091      83.98        0.011201    -91.721       0.02091      83.98        0.0038772    81.609      
              0.99913     -4.3476       0.0038772    81.609      
              0.0036983    82.679       0.020877     83.976       0.0071389   -89.727       0.0020842   -99.209      
              0.0038434    82.013       0.99943     -4.1318      
              0.99943     -4.1318       0.0038436    81.585       0.0020842   -99.2         0.0071662   -102.12      
              0.020878     86.722       0.003722     91.912      
              0.0038769    82.036       0.99913     -4.3476       0.0038769    82.036       0.020911     86.715      
              0.011239    -100.48       0.020911     86.715      
              0.0020842   -99.2         0.0038436    81.585       0.99943     -4.1318       0.003722     91.912      
              0.020878     86.722       0.0071662   -102.12      

 4            0.0073231   -89.699       0.021412     83.828       0.0037942    82.488       0.99941     -4.2377      
              0.0039415    81.851       0.0021376   -99.457      
              0.021446     83.833       0.011488    -91.747       0.021446     83.833       0.003976     81.436      
              0.99909     -4.459        0.003976     81.436      
              0.0037942    82.488       0.021412     83.828       0.0073231   -89.699       0.0021376   -99.457      
              0.0039415    81.851       0.99941     -4.2377      
              0.99941     -4.2377       0.0039418    81.411       0.0021377   -99.448       0.0073527   -102.41      
              0.021413     86.646       0.0038195    91.961      
              0.0039757    81.874       0.99909     -4.459        0.0039757    81.874       0.021447     86.639      
              0.011529    -100.73       0.021447     86.639      
              0.0021377   -99.448       0.0039418    81.411       0.99941     -4.2377       0.0038195    91.961      
              0.021413     86.646       0.0073527   -102.41      

 4.1          0.0075072   -89.671       0.021947     83.68        0.0038901    82.297       0.99938     -4.3436      
              0.0040395    81.689       0.002191    -99.706      
              0.021982     83.685       0.011774    -91.773       0.021982     83.685       0.0040747    81.263      
              0.99906     -4.5703       0.0040747    81.263      
              0.0038901    82.297       0.021947     83.68        0.0075072   -89.671       0.002191    -99.706      
              0.0040395    81.689       0.99938     -4.3436      
              0.99938     -4.3436       0.0040399    81.238       0.0021911   -99.697       0.0075393   -102.69      
              0.021947     86.57        0.0039172    92.011      
              0.0040744    81.713       0.99906     -4.5703       0.0040744    81.713       0.021982     86.562      
              0.011819    -100.98       0.021982     86.562      
              0.0021911   -99.697       0.0040399    81.238       0.99938     -4.3436       0.0039172    92.011      
              0.021947     86.57        0.0075393   -102.69      

 4.2          0.0076914   -89.642       0.022482     83.532       0.0039862    82.105       0.99936     -4.4494      
              0.0041375    81.527       0.0022444   -99.955      
              0.022518     83.537       0.012061    -91.798       0.022518     83.537       0.0041734    81.09       
              0.99902     -4.6817       0.0041734    81.09       
              0.0039862    82.105       0.022482     83.532       0.0076914   -89.642       0.0022444   -99.955      
              0.0041375    81.527       0.99936     -4.4494      
              0.99936     -4.4494       0.0041379    81.064       0.0022445   -99.945       0.007726    -102.98      
              0.022482     86.493       0.004015     92.061      
              0.004173     81.551       0.99902     -4.6817       0.004173     81.551       0.022518     86.486      
              0.012109    -101.23       0.022518     86.486      
              0.0022445   -99.945       0.0041379    81.064       0.99936     -4.4494       0.004015     92.061      
              0.022482     86.493       0.007726    -102.98      

 4.3          0.0078755   -89.613       0.023018     83.384       0.0040823    81.913       0.99934     -4.5553      
              0.0042355    81.365       0.0022978   -100.2       
              0.023054     83.389       0.012347    -91.823       0.023054     83.389       0.004272     80.917      
              0.99898     -4.793        0.004272     80.917      
              0.0040823    81.913       0.023018     83.384       0.0078755   -89.613       0.0022978   -100.2       
              0.0042355    81.365       0.99934     -4.5553      
              0.99934     -4.5553       0.0042359    80.891       0.0022979   -100.19       0.0079128   -103.26      
              0.023017     86.417       0.004113     92.111      
              0.0042716    81.389       0.99898     -4.793        0.0042716    81.389       0.023053     86.41       
              0.012399    -101.48       0.023053     86.41       
              0.0022979   -100.19       0.0042359    80.891       0.99934     -4.5553       0.004113     92.111      
              0.023017     86.417       0.0079128   -103.26      

 4.4          0.0080596   -89.584       0.023553     83.237       0.0041786    81.721       0.99932     -4.6612      
              0.0043334    81.203       0.0023513   -100.45      
              0.02359      83.242       0.012633    -91.848       0.02359      83.242       0.0043706    80.744      
              0.99895     -4.9044       0.0043706    80.744      
              0.0041786    81.721       0.023553     83.237       0.0080596   -89.584       0.0023513   -100.45      
              0.0043334    81.203       0.99932     -4.6612      
              0.99932     -4.6612       0.0043339    80.717       0.0023513   -100.44       0.0080997   -103.55      
              0.023552     86.341       0.0042111    92.161      
              0.0043702    81.228       0.99895     -4.9043       0.0043702    81.228       0.023589     86.333      
              0.012689    -101.73       0.023589     86.333      
              0.0023513   -100.44       0.0043339    80.717       0.99932     -4.6612       0.0042111    92.161      
              0.023552     86.341       0.0080997   -103.55      

 4.5          0.0082437   -89.555       0.024088     83.089       0.0042749    81.529       0.9993      -4.767       
              0.0044313    81.042       0.0024047   -100.7       
              0.024125     83.094       0.012919    -91.873       0.024125     83.094       0.0044691    80.571      
              0.99891     -5.0157       0.0044691    80.571      
              0.0042749    81.529       0.024088     83.089       0.0082437   -89.555       0.0024047   -100.7       
              0.0044313    81.042       0.9993      -4.767       
              0.9993      -4.767        0.0044318    80.544       0.0024047   -100.69       0.0082866   -103.83      
              0.024087     86.265       0.0043095    92.212      
              0.0044686    81.066       0.99891     -5.0157       0.0044686    81.066       0.024124     86.257      
              0.012979    -101.97       0.024124     86.257      
              0.0024047   -100.69       0.0044318    80.544       0.9993      -4.767        0.0043095    92.212      
              0.024087     86.265       0.0082866   -103.83      

 4.6          0.0084277   -89.525       0.024623     82.941       0.0043713    81.336       0.99928     -4.8729      
              0.0045292    80.88        0.0024581   -100.95      
              0.024661     82.946       0.013205    -91.897       0.024661     82.946       0.0045676    80.397      
              0.99887     -5.127        0.0045676    80.397      
              0.0043713    81.336       0.024623     82.941       0.0084277   -89.525       0.0024581   -100.95      
              0.0045292    80.88        0.99928     -4.8729      
              0.99928     -4.8729       0.0045297    80.37        0.0024581   -100.94       0.0084737   -104.11      
              0.024622     86.189       0.004408     92.262      
              0.004567     80.905       0.99887     -5.127        0.004567     80.905       0.02466      86.181      
              0.013269    -102.22       0.02466      86.181      
              0.0024581   -100.94       0.0045297    80.37        0.99928     -4.8729       0.004408     92.262      
              0.024622     86.189       0.0084737   -104.11      

 4.7          0.0086118   -89.495       0.025159     82.792       0.0044678    81.143       0.99925     -4.9787      
              0.0046269    80.718       0.0025115   -101.2       
              0.025197     82.798       0.013491    -91.921       0.025197     82.798       0.0046659    80.224      
              0.99883     -5.2383       0.0046659    80.224      
              0.0044678    81.143       0.025159     82.792       0.0086118   -89.495       0.0025115   -101.2       
              0.0046269    80.718       0.99925     -4.9787      
              0.99925     -4.9787       0.0046275    80.197       0.0025115   -101.19       0.0086609   -104.4       
              0.025157     86.113       0.0045066    92.312      
              0.0046654    80.743       0.99883     -5.2383       0.0046654    80.743       0.025195     86.105      
              0.013559    -102.47       0.025195     86.105      
              0.0025115   -101.19       0.0046275    80.197       0.99925     -4.9787       0.0045066    92.312      
              0.025157     86.113       0.0086609   -104.4       

 4.8          0.0087958   -89.465       0.025694     82.644       0.0045645    80.95        0.99923     -5.0846      
              0.0047247    80.557       0.0025649   -101.45      
              0.025733     82.65        0.013776    -91.945       0.025733     82.65        0.0047643    80.051      
              0.99879     -5.3497       0.0047643    80.051      
              0.0045645    80.95        0.025694     82.644       0.0087958   -89.465       0.0025649   -101.45      
              0.0047247    80.557       0.99923     -5.0846      
              0.99923     -5.0846       0.0047253    80.024       0.0025649   -101.44       0.0088482   -104.68      
              0.025692     86.037       0.0046055    92.363      
              0.0047636    80.582       0.99879     -5.3497       0.0047636    80.582       0.02573      86.029      
              0.01385     -102.72       0.02573      86.029      
              0.0025649   -101.44       0.0047253    80.024       0.99923     -5.0846       0.0046055    92.363      
              0.025692     86.037       0.0088482   -104.68      

 4.9          0.0089798   -89.434       0.02623      82.496       0.0046612    80.757       0.99921     -5.1905      
              0.0048224    80.395       0.0026183   -101.69      
              0.026269     82.502       0.014062    -91.968       0.026269     82.502       0.0048625    79.878      
              0.99875     -5.461        0.0048625    79.878      
              0.0046612    80.757       0.02623      82.496       0.0089798   -89.434       0.0026183   -101.69      
              0.0048224    80.395       0.99921     -5.1905      
              0.99921     -5.1905       0.0048231    79.85        0.0026183   -101.68       0.0090356   -104.97      
              0.026227     85.961       0.0047046    92.414      
              0.0048619    80.42        0.99875     -5.461        0.0048619    80.42        0.026266     85.953      
              0.01414     -102.97       0.026266     85.953      
              0.0026183   -101.68       0.0048231    79.85        0.99921     -5.1905       0.0047046    92.414      
              0.026227     85.961       0.0090356   -104.97      

 5            0.0091637   -89.403       0.026765     82.348       0.004758     80.563       0.99918     -5.2963      
              0.00492      80.233       0.0026717   -101.94      
              0.026805     82.354       0.014347    -91.991       0.026805     82.354       0.0049607    79.705      
              0.99871     -5.5723       0.0049607    79.705      
              0.004758     80.563       0.026765     82.348       0.0091637   -89.403       0.0026717   -101.94      
              0.00492      80.233       0.99918     -5.2963      
              0.99918     -5.2963       0.0049207    79.677       0.0026718   -101.93       0.009223    -105.25      
              0.026761     85.885       0.0048038    92.465      
              0.00496      80.259       0.99871     -5.5723       0.00496      80.259       0.026801     85.877      
              0.01443     -103.22       0.026801     85.877      
              0.0026718   -101.93       0.0049207    79.677       0.99918     -5.2963       0.0048038    92.465      
              0.026761     85.885       0.009223    -105.25      

 5.1          0.0093476   -89.372       0.0273       82.2         0.004855     80.368       0.99916     -5.4022      
              0.0050176    80.072       0.0027252   -102.19      
              0.027341     82.206       0.014632    -92.014       0.027341     82.206       0.0050588    79.532      
              0.99867     -5.6836       0.0050588    79.532      
              0.004855     80.368       0.0273       82.2         0.0093476   -89.372       0.0027252   -102.19      
              0.0050176    80.072       0.99916     -5.4022      
              0.99916     -5.4022       0.0050184    79.504       0.0027252   -102.18       0.0094106   -105.53      
              0.027296     85.81        0.0049033    92.516      
              0.005058     80.098       0.99867     -5.6836       0.005058     80.098       0.027336     85.801      
              0.01472     -103.47       0.027336     85.801      
              0.0027252   -102.18       0.0050184    79.504       0.99916     -5.4022       0.0049033    92.516      
              0.027296     85.81        0.0094106   -105.53      

 5.2          0.0095315   -89.34        0.027836     82.052       0.0049521    80.174       0.99913     -5.508       
              0.0051151    79.911       0.0027786   -102.44      
              0.027877     82.057       0.014916    -92.037       0.027877     82.057       0.0051568    79.359      
              0.99862     -5.7949       0.0051568    79.359      
              0.0049521    80.174       0.027836     82.052       0.0095315   -89.34        0.0027786   -102.44      
              0.0051151    79.911       0.99913     -5.508       
              0.99913     -5.5081       0.0051159    79.331       0.0027786   -102.43       0.0095983   -105.82      
              0.027831     85.734       0.0050029    92.567      
              0.005156     79.937       0.99862     -5.7949       0.005156     79.937       0.027872     85.726      
              0.01501     -103.72       0.027872     85.726      
              0.0027786   -102.43       0.0051159    79.331       0.99913     -5.5081       0.0050029    92.567      
              0.027831     85.734       0.0095983   -105.82      

 5.3          0.0097153   -89.309       0.028371     81.903       0.0050493    79.979       0.99911     -5.6139      
              0.0052125    79.75        0.002832    -102.69      
              0.028413     81.909       0.015201    -92.059       0.028413     81.909       0.0052548    79.186      
              0.99858     -5.9062       0.0052548    79.186      
              0.0050493    79.979       0.028371     81.903       0.0097153   -89.309       0.002832    -102.69      
              0.0052125    79.75        0.99911     -5.6139      
              0.99911     -5.6139       0.0052135    79.157       0.0028321   -102.68       0.009786    -106.1       
              0.028366     85.659       0.0051028    92.618      
              0.0052539    79.776       0.99858     -5.9062       0.0052539    79.776       0.028407     85.65       
              0.0153      -103.96       0.028407     85.65       
              0.0028321   -102.68       0.0052135    79.157       0.99911     -5.6139       0.0051028    92.618      
              0.028366     85.659       0.009786    -106.1       

 5.4          0.0098991   -89.276       0.028907     81.755       0.0051466    79.783       0.99908     -5.7198      
              0.0053099    79.589       0.0028855   -102.94      
              0.028949     81.761       0.015485    -92.081       0.028949     81.761       0.0053527    79.013      
              0.99854     -6.0175       0.0053527    79.013      
              0.0051466    79.783       0.028907     81.755       0.0098991   -89.276       0.0028855   -102.94      
              0.0053099    79.589       0.99908     -5.7198      
              0.99908     -5.7198       0.0053109    78.984       0.0028855   -102.93       0.0099738   -106.38      
              0.028901     85.583       0.0052029    92.67       
              0.0053517    79.615       0.99854     -6.0175       0.0053517    79.615       0.028942     85.575      
              0.015591    -104.21       0.028942     85.575      
              0.0028855   -102.93       0.0053109    78.984       0.99908     -5.7198       0.0052029    92.67       
              0.028901     85.583       0.0099738   -106.38      

 5.5          0.010083    -89.244       0.029442     81.606       0.005244     79.588       0.99906     -5.8256      
              0.0054072    79.428       0.0029389   -103.19      
              0.029484     81.612       0.015769    -92.103       0.029484     81.612       0.0054504    78.84       
              0.99849     -6.1289       0.0054504    78.84       
              0.005244     79.588       0.029442     81.606       0.010083    -89.244       0.0029389   -103.19      
              0.0054072    79.428       0.99906     -5.8256      
              0.99906     -5.8256       0.0054083    78.811       0.002939    -103.17       0.010162    -106.66      
              0.029435     85.508       0.0053032    92.721      
              0.0054494    79.454       0.99849     -6.1288       0.0054494    79.454       0.029477     85.499      
              0.015881    -104.46       0.029477     85.499      
              0.002939    -103.17       0.0054083    78.811       0.99906     -5.8256       0.0053032    92.721      
              0.029435     85.508       0.010162    -106.66      

 5.6          0.010266    -89.211       0.029978     81.458       0.0053416    79.392       0.99903     -5.9315      
              0.0055045    79.267       0.0029924   -103.43      
              0.03002      81.464       0.016053    -92.125       0.03002      81.464       0.0055481    78.667      
              0.99845     -6.2401       0.0055481    78.667      
              0.0053416    79.392       0.029978     81.458       0.010266    -89.211       0.0029924   -103.43      
              0.0055045    79.267       0.99903     -5.9315      
              0.99903     -5.9315       0.0055056    78.638       0.0029924   -103.42       0.01035     -106.95      
              0.02997      85.432       0.0054037    92.773      
              0.0055471    79.293       0.99845     -6.2401       0.0055471    79.293       0.030012     85.424      
              0.016171    -104.71       0.030012     85.424      
              0.0029924   -103.42       0.0055056    78.638       0.99903     -5.9315       0.0054037    92.773      
              0.02997      85.432       0.01035     -106.95      

 5.7          0.01045     -89.178       0.030514     81.309       0.0054393    79.195       0.99901     -6.0374      
              0.0056017    79.106       0.0030459   -103.68      
              0.030556     81.315       0.016337    -92.146       0.030556     81.315       0.0056458    78.494      
              0.9984      -6.3514       0.0056458    78.494      
              0.0054393    79.195       0.030514     81.309       0.01045     -89.178       0.0030459   -103.68      
              0.0056017    79.106       0.99901     -6.0374      
              0.99901     -6.0374       0.0056029    78.465       0.0030459   -103.67       0.010538    -107.23      
              0.030505     85.357       0.0055045    92.825      
              0.0056446    79.133       0.9984      -6.3514       0.0056446    79.133       0.030548     85.349      
              0.016461    -104.96       0.030548     85.349      
              0.0030459   -103.67       0.0056029    78.465       0.99901     -6.0374       0.0055045    92.825      
              0.030505     85.357       0.010538    -107.23      

 5.8          0.010634    -89.145       0.031049     81.16        0.0055371    78.998       0.99898     -6.1432      
              0.0056988    78.945       0.0030994   -103.93      
              0.031092     81.167       0.01662     -92.167       0.031092     81.167       0.0057433    78.321      
              0.99835     -6.4627       0.0057433    78.321      
              0.0055371    78.998       0.031049     81.16        0.010634    -89.145       0.0030994   -103.93      
              0.0056988    78.945       0.99898     -6.1432      
              0.99898     -6.1432       0.0057001    78.292       0.0030994   -103.92       0.010726    -107.51      
              0.03104      85.282       0.0056055    92.877      
              0.005742     78.972       0.99835     -6.4627       0.005742     78.972       0.031083     85.273      
              0.016751    -105.21       0.031083     85.273      
              0.0030994   -103.92       0.0057001    78.292       0.99898     -6.1432       0.0056055    92.877      
              0.03104      85.282       0.010726    -107.51      

 5.9          0.010817    -89.111       0.031585     81.012       0.0056351    78.801       0.99895     -6.2491      
              0.0057958    78.785       0.0031529   -104.18      
              0.031629     81.018       0.016903    -92.187       0.031629     81.018       0.0058407    78.149      
              0.99831     -6.574        0.0058407    78.149      
              0.0056351    78.801       0.031585     81.012       0.010817    -89.111       0.0031529   -104.18      
              0.0057958    78.785       0.99895     -6.2491      
              0.99895     -6.2491       0.0057972    78.119       0.0031529   -104.17       0.010914    -107.8       
              0.031575     85.207       0.0057067    92.929      
              0.0058394    78.812       0.99831     -6.574        0.0058394    78.812       0.031618     85.198      
              0.017041    -105.46       0.031618     85.198      
              0.0031529   -104.17       0.0057972    78.119       0.99895     -6.2491       0.0057067    92.929      
              0.031575     85.207       0.010914    -107.8       

 6            0.011001    -89.077       0.032121     80.863       0.0057332    78.603       0.99892     -6.3549      
              0.0058928    78.624       0.0032064   -104.43      
              0.032165     80.87        0.017186    -92.208       0.032165     80.87        0.005938     77.976      
              0.99826     -6.6853       0.005938     77.976      
              0.0057332    78.603       0.032121     80.863       0.011001    -89.077       0.0032064   -104.43      
              0.0058928    78.624       0.99892     -6.3549      
              0.99893     -6.3549       0.0058942    77.946       0.0032064   -104.42       0.011103    -108.08      
              0.03211      85.132       0.0058082    92.982      
              0.0059366    78.651       0.99826     -6.6853       0.0059366    78.651       0.032153     85.123      
              0.017331    -105.71       0.032153     85.123      
              0.0032064   -104.42       0.0058942    77.946       0.99893     -6.3549       0.0058082    92.982      
              0.03211      85.132       0.011103    -108.08      

 6.1          0.011184    -89.042       0.032657     80.714       0.0058314    78.405       0.9989      -6.4608      
              0.0059896    78.464       0.0032599   -104.68      
              0.032701     80.721       0.017469    -92.228       0.032701     80.721       0.0060352    77.803      
              0.99821     -6.7966       0.0060352    77.803      
              0.0058314    78.405       0.032657     80.714       0.011184    -89.042       0.0032599   -104.68      
              0.0059896    78.464       0.9989      -6.4608      
              0.9989      -6.4608       0.0059912    77.773       0.0032599   -104.67       0.011291    -108.36      
              0.032644     85.057       0.00591      93.034      
              0.0060338    78.491       0.99821     -6.7966       0.0060338    78.491       0.032688     85.048      
              0.017621    -105.96       0.032688     85.048      
              0.0032599   -104.67       0.0059912    77.773       0.9989      -6.4608       0.00591      93.034      
              0.032644     85.057       0.011291    -108.36      

 6.2          0.011367    -89.007       0.033193     80.565       0.0059298    78.206       0.99887     -6.5667      
              0.0060864    78.303       0.0033134   -104.93      
              0.033237     80.572       0.017751    -92.247       0.033237     80.572       0.0061324    77.63       
              0.99816     -6.9079       0.0061324    77.63       
              0.0059298    78.206       0.033193     80.565       0.011367    -89.007       0.0033134   -104.93      
              0.0060864    78.303       0.99887     -6.5667      
              0.99887     -6.5667       0.0060881    77.6         0.0033135   -104.92       0.01148     -108.65      
              0.033179     84.983       0.006012     93.087      
              0.0061308    78.331       0.99816     -6.9079       0.0061308    78.331       0.033223     84.974      
              0.017912    -106.2        0.033223     84.974      
              0.0033135   -104.92       0.0060881    77.6         0.99887     -6.5667       0.006012     93.087      
              0.033179     84.983       0.01148     -108.65      

 6.3          0.01155     -88.972       0.033729     80.416       0.0060284    78.007       0.99884     -6.6725      
              0.0061831    78.143       0.003367    -105.18      
              0.033773     80.423       0.018033    -92.266       0.033773     80.423       0.0062294    77.458      
              0.99811     -7.0192       0.0062294    77.458      
              0.0060284    78.007       0.033729     80.416       0.01155     -88.972       0.003367    -105.18      
              0.0061831    78.143       0.99884     -6.6725      
              0.99884     -6.6725       0.0061849    77.427       0.003367    -105.16       0.011668    -108.93      
              0.033714     84.908       0.0061142    93.14       
              0.0062277    78.171       0.99811     -7.0191       0.0062277    78.171       0.033758     84.899      
              0.018202    -106.45       0.033758     84.899      
              0.003367    -105.16       0.0061849    77.427       0.99884     -6.6725       0.0061142    93.14       
              0.033714     84.908       0.011668    -108.93      

 6.4          0.011733    -88.936       0.034265     80.267       0.0061271    77.808       0.99881     -6.7784      
              0.0062798    77.983       0.0034206   -105.43      
              0.034309     80.274       0.018315    -92.285       0.034309     80.274       0.0063263    77.285      
              0.99806     -7.1304       0.0063263    77.285      
              0.0061271    77.808       0.034265     80.267       0.011733    -88.936       0.0034206   -105.43      
              0.0062798    77.983       0.99881     -6.7784      
              0.99881     -6.7784       0.0062816    77.255       0.0034206   -105.41       0.011857    -109.21      
              0.034249     84.833       0.0062168    93.193      
              0.0063246    78.011       0.99806     -7.1304       0.0063246    78.011       0.034293     84.824      
              0.018492    -106.7        0.034293     84.824      
              0.0034206   -105.41       0.0062816    77.255       0.99881     -6.7784       0.0062168    93.193      
              0.034249     84.833       0.011857    -109.21      

 6.5          0.011916    -88.9         0.034801     80.118       0.006226     77.608       0.99878     -6.8843      
              0.0063763    77.824       0.0034742   -105.67      
              0.034846     80.125       0.018597    -92.304       0.034846     80.125       0.0064231    77.113      
              0.99801     -7.2417       0.0064231    77.113      
              0.006226     77.608       0.034801     80.118       0.011916    -88.9         0.0034742   -105.67      
              0.0063763    77.824       0.99878     -6.8843      
              0.99878     -6.8843       0.0063782    77.082       0.0034742   -105.66       0.012046    -109.5       
              0.034784     84.759       0.0063196    93.246      
              0.0064213    77.851       0.99801     -7.2417       0.0064213    77.851       0.034828     84.75       
              0.018781    -106.95       0.034828     84.75       
              0.0034742   -105.66       0.0063782    77.082       0.99878     -6.8843       0.0063196    93.246      
              0.034784     84.759       0.012046    -109.5       

 6.6          0.012099    -88.863       0.035337     79.969       0.0063251    77.407       0.99875     -6.9902      
              0.0064727    77.664       0.0035278   -105.92      
              0.035382     79.976       0.018878    -92.322       0.035382     79.976       0.0065197    76.94       
              0.99796     -7.353        0.0065197    76.94       
              0.0063251    77.407       0.035337     79.969       0.012099    -88.863       0.0035278   -105.92      
              0.0064727    77.664       0.99875     -6.9902      
              0.99876     -6.9902       0.0064747    76.909       0.0035278   -105.91       0.012234    -109.78      
              0.035319     84.685       0.0064227    93.299      
              0.0065178    77.692       0.99796     -7.3529       0.0065178    77.692       0.035363     84.676      
              0.019071    -107.2        0.035363     84.676      
              0.0035278   -105.91       0.0064747    76.909       0.99876     -6.9902       0.0064227    93.299      
              0.035319     84.685       0.012234    -109.78      

 6.7          0.012282    -88.826       0.035873     79.819       0.0064243    77.206       0.99873     -7.096       
              0.0065691    77.504       0.0035814   -106.17      
              0.035918     79.826       0.019159    -92.34        0.035918     79.826       0.0066163    76.768      
              0.99791     -7.4642       0.0066163    76.768      
              0.0064243    77.206       0.035873     79.819       0.012282    -88.826       0.0035814   -106.17      
              0.0065691    77.504       0.99873     -7.096       
              0.99873     -7.096        0.0065711    76.737       0.0035815   -106.16       0.012423    -110.06      
              0.035854     84.611       0.0065261    93.353      
              0.0066143    77.532       0.9979      -7.4642       0.0066143    77.532       0.035898     84.601      
              0.019361    -107.45       0.035898     84.601      
              0.0035815   -106.16       0.0065711    76.737       0.99873     -7.096        0.0065261    93.353      
              0.035854     84.611       0.012423    -110.06      

 6.8          0.012465    -88.789       0.036409     79.67        0.0065237    77.004       0.9987      -7.2019      
              0.0066653    77.345       0.0036351   -106.42      
              0.036455     79.677       0.019439    -92.357       0.036455     79.677       0.0067127    76.595      
              0.99785     -7.5755       0.0067127    76.595      
              0.0065237    77.004       0.036409     79.67        0.012465    -88.789       0.0036351   -106.42      
              0.0066653    77.345       0.9987      -7.2019      
              0.9987      -7.2019       0.0066675    76.564       0.0036352   -106.41       0.012612    -110.35      
              0.036389     84.536       0.0066298    93.406      
              0.0067106    77.373       0.99785     -7.5755       0.0067106    77.373       0.036433     84.527      
              0.019651    -107.7        0.036433     84.527      
              0.0036352   -106.41       0.0066675    76.564       0.9987      -7.2019       0.0066298    93.406      
              0.036389     84.536       0.012612    -110.35      

 6.9          0.012648    -88.751       0.036946     79.52        0.0066233    76.802       0.99866     -7.3078      
              0.0067614    77.186       0.0036888   -106.67      
              0.036991     79.527       0.019719    -92.374       0.036991     79.527       0.006809     76.423      
              0.9978      -7.6868       0.006809     76.423      
              0.0066233    76.802       0.036946     79.52        0.012648    -88.751       0.0036888   -106.67      
              0.0067614    77.186       0.99866     -7.3078      
              0.99867     -7.3078       0.0067637    76.392       0.0036888   -106.66       0.012801    -110.63      
              0.036924     84.462       0.0067337    93.46       
              0.0068068    77.214       0.9978      -7.6867       0.0068068    77.214       0.036969     84.453      
              0.019941    -107.95       0.036969     84.453      
              0.0036888   -106.66       0.0067637    76.392       0.99867     -7.3078       0.0067337    93.46       
              0.036924     84.462       0.012801    -110.63      

 7            0.01283     -88.713       0.037482     79.371       0.0067231    76.599       0.99863     -7.4137      
              0.0068575    77.027       0.0037425   -106.92      
              0.037528     79.378       0.019999    -92.39        0.037528     79.378       0.0069051    76.25       
              0.99774     -7.798        0.0069051    76.25       
              0.0067231    76.599       0.037482     79.371       0.01283     -88.713       0.0037425   -106.92      
              0.0068575    77.027       0.99863     -7.4137      
              0.99864     -7.4137       0.0068598    76.22        0.0037426   -106.91       0.01299     -110.92      
              0.037459     84.389       0.006838     93.514      
              0.0069029    77.054       0.99774     -7.798        0.0069029    77.054       0.037504     84.379      
              0.02023     -108.21       0.037504     84.379      
              0.0037426   -106.91       0.0068598    76.22        0.99864     -7.4137       0.006838     93.514      
              0.037459     84.389       0.01299     -110.92      

 7.1          0.013012    -88.674       0.038019     79.221       0.006823     76.396       0.9986      -7.5195      
              0.0069534    76.868       0.0037962   -107.17      
              0.038064     79.228       0.020279    -92.406       0.038064     79.228       0.0070011    76.078      
              0.99769     -7.9093       0.0070011    76.078      
              0.006823     76.396       0.038019     79.221       0.013012    -88.674       0.0037962   -107.17      
              0.0069534    76.868       0.9986      -7.5195      
              0.9986      -7.5196       0.0069558    76.047       0.0037963   -107.16       0.013179    -111.2       
              0.037994     84.315       0.0069426    93.569      
              0.0069988    76.895       0.99769     -7.9093       0.0069988    76.895       0.038039     84.306      
              0.02052     -108.46       0.038039     84.306      
              0.0037963   -107.16       0.0069558    76.047       0.9986      -7.5196       0.0069426    93.569      
              0.037994     84.315       0.013179    -111.2       

 7.2          0.013195    -88.634       0.038556     79.071       0.0069232    76.192       0.99857     -7.6254      
              0.0070492    76.709       0.00385     -107.42      
              0.038601     79.078       0.020558    -92.422       0.038601     79.078       0.007097     75.906      
              0.99763     -8.0205       0.007097     75.906      
              0.0069232    76.192       0.038556     79.071       0.013195    -88.634       0.00385     -107.42      
              0.0070492    76.709       0.99857     -7.6254      
              0.99857     -7.6254       0.0070517    75.875       0.0038501   -107.41       0.013368    -111.49      
              0.038529     84.241       0.0070475    93.623      
              0.0070946    76.737       0.99763     -8.0205       0.0070946    76.737       0.038574     84.232      
              0.02081     -108.71       0.038574     84.232      
              0.0038501   -107.41       0.0070517    75.875       0.99857     -7.6254       0.0070475    93.623      
              0.038529     84.241       0.013368    -111.49      

 7.3          0.013377    -88.594       0.039092     78.921       0.0070235    75.988       0.99854     -7.7313      
              0.0071449    76.55        0.0039038   -107.67      
              0.039138     78.928       0.020837    -92.437       0.039138     78.928       0.0071928    75.734      
              0.99758     -8.1318       0.0071928    75.734      
              0.0070235    75.988       0.039092     78.921       0.013377    -88.594       0.0039038   -107.67      
              0.0071449    76.55        0.99854     -7.7313      
              0.99854     -7.7313       0.0071475    75.703       0.0039039   -107.65       0.013558    -111.77      
              0.039064     84.168       0.0071528    93.678      
              0.0071902    76.578       0.99757     -8.1318       0.0071902    76.578       0.039109     84.159      
              0.021099    -108.96       0.039109     84.159      
              0.0039039   -107.65       0.0071475    75.703       0.99854     -7.7313       0.0071528    93.678      
              0.039064     84.168       0.013558    -111.77      

 7.4          0.013559    -88.554       0.039629     78.771       0.0071241    75.783       0.99851     -7.8372      
              0.0072404    76.392       0.0039576   -107.92      
              0.039674     78.778       0.021116    -92.452       0.039674     78.778       0.0072883    75.561      
              0.99752     -8.2431       0.0072883    75.561      
              0.0071241    75.783       0.039629     78.771       0.013559    -88.554       0.0039576   -107.92      
              0.0072404    76.392       0.99851     -7.8372      
              0.99851     -7.8372       0.0072432    75.531       0.0039577   -107.9        0.013747    -112.06      
              0.0396       84.094       0.0072584    93.733      
              0.0072857    76.419       0.99752     -8.243        0.0072857    76.419       0.039644     84.085      
              0.021388    -109.21       0.039644     84.085      
              0.0039577   -107.9        0.0072432    75.531       0.99851     -7.8372       0.0072584    93.733      
              0.0396       84.094       0.013747    -112.06      

 7.5          0.013741    -88.512       0.040166     78.621       0.0072248    75.577       0.99848     -7.9431      
              0.0073359    76.233       0.0040115   -108.17      
              0.040211     78.628       0.021394    -92.466       0.040211     78.628       0.0073838    75.389      
              0.99746     -8.3543       0.0073838    75.389      
              0.0072248    75.577       0.040166     78.621       0.013741    -88.512       0.0040115   -108.17      
              0.0073359    76.233       0.99848     -7.9431      
              0.99848     -7.9431       0.0073388    75.359       0.0040116   -108.15       0.013936    -112.34      
              0.040135     84.021       0.0073643    93.788      
              0.007381     76.261       0.99746     -8.3543       0.007381     76.261       0.040179     84.012      
              0.021678    -109.46       0.040179     84.012      
              0.0040116   -108.15       0.0073388    75.359       0.99848     -7.9431       0.0073643    93.788      
              0.040135     84.021       0.013936    -112.34      

 7.6          0.013923    -88.471       0.040704     78.47        0.0073258    75.371       0.99844     -8.049       
              0.0074312    76.075       0.0040654   -108.42      
              0.040748     78.478       0.021671    -92.48        0.040748     78.478       0.0074791    75.217      
              0.9974      -8.4656       0.0074791    75.217      
              0.0073258    75.371       0.040704     78.47        0.013923    -88.471       0.0040654   -108.42      
              0.0074312    76.075       0.99844     -8.049       
              0.99844     -8.049        0.0074342    75.187       0.0040655   -108.4        0.014126    -112.63      
              0.04067      83.948       0.0074706    93.843      
              0.0074762    76.103       0.9974      -8.4655       0.0074762    76.103       0.040714     83.939      
              0.021967    -109.72       0.040714     83.939      
              0.0040655   -108.4        0.0074342    75.187       0.99844     -8.049        0.0074706    93.843      
              0.04067      83.948       0.014126    -112.63      

 7.7          0.014104    -88.428       0.041241     78.32        0.007427     75.164       0.99841     -8.1549      
              0.0075264    75.917       0.0041194   -108.67      
              0.041285     78.328       0.021949    -92.493       0.041285     78.328       0.0075742    75.045      
              0.99734     -8.5768       0.0075742    75.045      
              0.007427     75.164       0.041241     78.32        0.014104    -88.428       0.0041194   -108.67      
              0.0075264    75.917       0.99841     -8.1549      
              0.99841     -8.1549       0.0075295    75.015       0.0041194   -108.65       0.014315    -112.92      
              0.041206     83.875       0.0075772    93.899      
              0.0075712    75.945       0.99734     -8.5768       0.0075712    75.945       0.04125      83.866      
              0.022256    -109.97       0.04125      83.866      
              0.0041194   -108.65       0.0075295    75.015       0.99841     -8.1549       0.0075772    93.899      
              0.041206     83.875       0.014315    -112.92      

 7.8          0.014286    -88.385       0.041778     78.17        0.0075284    74.956       0.99838     -8.2608      
              0.0076214    75.759       0.0041733   -108.92      
              0.041823     78.177       0.022226    -92.505       0.041823     78.177       0.0076691    74.873      
              0.99728     -8.6881       0.0076691    74.873      
              0.0075284    74.956       0.041778     78.17        0.014286    -88.385       0.0041733   -108.92      
              0.0076214    75.759       0.99838     -8.2608      
              0.99838     -8.2608       0.0076247    74.843       0.0041734   -108.9        0.014504    -113.2       
              0.041741     83.802       0.0076842    93.955      
              0.007666     75.787       0.99728     -8.688        0.007666     75.787       0.041785     83.793      
              0.022545    -110.22       0.041785     83.793      
              0.0041734   -108.9        0.0076247    74.843       0.99838     -8.2608       0.0076842    93.955      
              0.041741     83.802       0.014504    -113.2       

 7.9          0.014467    -88.341       0.042316     78.019       0.0076301    74.748       0.99834     -8.3667      
              0.0077163    75.602       0.0042274   -109.17      
              0.04236      78.026       0.022502    -92.518       0.04236      78.026       0.0077639    74.702      
              0.99722     -8.7993       0.0077639    74.702      
              0.0076301    74.748       0.042316     78.019       0.014467    -88.341       0.0042274   -109.17      
              0.0077163    75.602       0.99834     -8.3667      
              0.99834     -8.3667       0.0077197    74.672       0.0042275   -109.15       0.014694    -113.49      
              0.042277     83.73        0.0077915    94.011      
              0.0077607    75.629       0.99722     -8.7993       0.0077607    75.629       0.04232      83.721      
              0.022834    -110.47       0.04232      83.721      
              0.0042275   -109.15       0.0077197    74.672       0.99834     -8.3667       0.0077915    94.011      
              0.042277     83.73        0.014694    -113.49      

 8            0.014648    -88.297       0.042853     77.868       0.0077319    74.539       0.99831     -8.4726      
              0.0078111    75.444       0.0042814   -109.42      
              0.042897     77.876       0.022779    -92.529       0.042897     77.876       0.0078585    74.53       
              0.99716     -8.9106       0.0078585    74.53       
              0.0077319    74.539       0.042853     77.868       0.014648    -88.297       0.0042814   -109.42      
              0.0078111    75.444       0.99831     -8.4726      
              0.99831     -8.4726       0.0078146    74.5         0.0042815   -109.4        0.014883    -113.78      
              0.042812     83.657       0.0078993    94.067      
              0.0078552    75.472       0.99716     -8.9105       0.0078552    75.472       0.042856     83.648      
              0.023123    -110.73       0.042856     83.648      
              0.0042815   -109.4        0.0078146    74.5         0.99831     -8.4726       0.0078993    94.067      
              0.042812     83.657       0.014883    -113.78      

 8.1          0.014829    -88.252       0.043391     77.717       0.0078341    74.33        0.99828     -8.5785      
              0.0079057    75.287       0.0043356   -109.67      
              0.043435     77.725       0.023054    -92.54        0.043435     77.725       0.007953     74.358      
              0.9971      -9.0218       0.007953     74.358      
              0.0078341    74.33        0.043391     77.717       0.014829    -88.252       0.0043356   -109.67      
              0.0079057    75.287       0.99828     -8.5785      
              0.99828     -8.5786       0.0079093    74.329       0.0043356   -109.65       0.015073    -114.07      
              0.043348     83.585       0.0080074    94.123      
              0.0079495    75.314       0.9971      -9.0218       0.0079495    75.314       0.043391     83.576      
              0.023412    -110.98       0.043391     83.576      
              0.0043356   -109.65       0.0079093    74.329       0.99828     -8.5786       0.0080074    94.123      
              0.043348     83.585       0.015073    -114.07      

 8.2          0.01501     -88.206       0.043929     77.566       0.0079364    74.119       0.99824     -8.6845      
              0.0080002    75.13        0.0043897   -109.92      
              0.043972     77.574       0.02333     -92.55        0.043972     77.574       0.0080472    74.186      
              0.99704     -9.1331       0.0080472    74.186      
              0.0079364    74.119       0.043929     77.566       0.01501     -88.206       0.0043897   -109.92      
              0.0080002    75.13        0.99824     -8.6845      
              0.99824     -8.6845       0.0080039    74.157       0.0043898   -109.9        0.015263    -114.36      
              0.043884     83.513       0.0081159    94.18       
              0.0080436    75.157       0.99703     -9.133        0.0080436    75.157       0.043926     83.504      
              0.023701    -111.24       0.043926     83.504      
              0.0043898   -109.9        0.0080039    74.157       0.99824     -8.6845       0.0081159    94.18       
              0.043884     83.513       0.015263    -114.36      

 8.3          0.015191    -88.16        0.044467     77.415       0.0080391    73.908       0.99821     -8.7904      
              0.0080945    74.973       0.0044439   -110.17      
              0.04451      77.423       0.023605    -92.56        0.04451      77.423       0.0081413    74.015      
              0.99697     -9.2443       0.0081413    74.015      
              0.0080391    73.908       0.044467     77.415       0.015191    -88.16        0.0044439   -110.17      
              0.0080945    74.973       0.99821     -8.7904      
              0.99821     -8.7904       0.0080984    73.986       0.004444    -110.15       0.015452    -114.65      
              0.04442      83.441       0.0082248    94.237      
              0.0081376    75           0.99697     -9.2443       0.0081376    75           0.044462     83.432      
              0.023989    -111.49       0.044462     83.432      
              0.004444    -110.15       0.0080984    73.986       0.99821     -8.7904       0.0082248    94.237      
              0.04442      83.441       0.015452    -114.65      

 8.4          0.015372    -88.112       0.045006     77.264       0.0081419    73.696       0.99817     -8.8963      
              0.0081887    74.817       0.0044982   -110.42      
              0.045048     77.271       0.023879    -92.569       0.045048     77.271       0.0082352    73.843      
              0.99691     -9.3556       0.0082352    73.843      
              0.0081419    73.696       0.045006     77.264       0.015372    -88.112       0.0044982   -110.42      
              0.0081887    74.817       0.99817     -8.8963      
              0.99817     -8.8963       0.0081927    73.814       0.0044983   -110.4        0.015642    -114.94      
              0.044956     83.369       0.0083341    94.294      
              0.0082313    74.843       0.99691     -9.3555       0.0082313    74.843       0.044998     83.36       
              0.024278    -111.75       0.044998     83.36       
              0.0044983   -110.4        0.0081927    73.814       0.99817     -8.8963       0.0083341    94.294      
              0.044956     83.369       0.015642    -114.94      

 8.5          0.015552    -88.064       0.045544     77.112       0.0082451    73.484       0.99813     -9.0022      
              0.0082827    74.66        0.0045525   -110.67      
              0.045586     77.12        0.024153    -92.578       0.045586     77.12        0.0083288    73.672      
              0.99684     -9.4668       0.0083288    73.672      
              0.0082451    73.484       0.045544     77.112       0.015552    -88.064       0.0045525   -110.67      
              0.0082827    74.66        0.99813     -9.0022      
              0.99814     -9.0023       0.0082868    73.643       0.0045526   -110.65       0.015832    -115.23      
              0.045492     83.297       0.0084439    94.352      
              0.0083249    74.687       0.99684     -9.4668       0.0083249    74.687       0.045533     83.288      
              0.024566    -112          0.045533     83.288      
              0.0045526   -110.65       0.0082868    73.643       0.99814     -9.0023       0.0084439    94.352      
              0.045492     83.297       0.015832    -115.23      

 8.6          0.015732    -88.015       0.046083     76.96        0.0083485    73.271       0.9981      -9.1082      
              0.0083766    74.504       0.0046069   -110.92      
              0.046124     76.968       0.024427    -92.585       0.046124     76.968       0.0084223    73.501      
              0.99678     -9.5781       0.0084223    73.501      
              0.0083485    73.271       0.046083     76.96        0.015732    -88.015       0.0046069   -110.92      
              0.0083766    74.504       0.9981      -9.1082      
              0.9981      -9.1082       0.0083808    73.472       0.004607    -110.9        0.016022    -115.52      
              0.046028     83.226       0.008554     94.409      
              0.0084182    74.53        0.99678     -9.578        0.0084182    74.53        0.046069     83.217      
              0.024855    -112.26       0.046069     83.217      
              0.004607    -110.9        0.0083808    73.472       0.9981      -9.1082       0.008554     94.409      
              0.046028     83.226       0.016022    -115.52      

 8.7          0.015912    -87.965       0.046621     76.809       0.0084522    73.057       0.99806     -9.2141      
              0.0084702    74.348       0.0046613   -111.17      
              0.046662     76.816       0.0247      -92.593       0.046662     76.816       0.0085156    73.329      
              0.99671     -9.6893       0.0085156    73.329      
              0.0084522    73.057       0.046621     76.809       0.015912    -87.965       0.0046613   -111.17      
              0.0084702    74.348       0.99806     -9.2141      
              0.99806     -9.2142       0.0084746    73.301       0.0046614   -111.15       0.016211    -115.81      
              0.046564     83.154       0.0086646    94.467      
              0.0085114    74.374       0.99671     -9.6893       0.0085114    74.374       0.046605     83.146      
              0.025143    -112.52       0.046605     83.146      
              0.0046614   -111.15       0.0084746    73.301       0.99806     -9.2142       0.0086646    94.467      
              0.046564     83.154       0.016211    -115.81      

 8.8          0.016092    -87.914       0.04716      76.657       0.0085561    72.842       0.99803     -9.3201      
              0.0085637    74.193       0.0047158   -111.42      
              0.047201     76.664       0.024972    -92.599       0.047201     76.664       0.0086086    73.158      
              0.99665     -9.8006       0.0086086    73.158      
              0.0085561    72.842       0.04716      76.657       0.016092    -87.914       0.0047158   -111.42      
              0.0085637    74.193       0.99803     -9.3201      
              0.99803     -9.3201       0.0085682    73.13        0.0047159   -111.4        0.016401    -116.1       
              0.047101     83.083       0.0087756    94.526      
              0.0086043    74.218       0.99664     -9.8005       0.0086043    74.218       0.047141     83.075      
              0.025431    -112.77       0.047141     83.075      
              0.0047159   -111.4        0.0085682    73.13        0.99803     -9.3201       0.0087756    94.526      
              0.047101     83.083       0.016401    -116.1       

 8.9          0.016272    -87.863       0.047699     76.505       0.0086604    72.626       0.99799     -9.426       
              0.0086571    74.037       0.0047704   -111.67      
              0.047739     76.512       0.025245    -92.605       0.047739     76.512       0.0087015    72.987      
              0.99658     -9.9118       0.0087015    72.987      
              0.0086604    72.626       0.047699     76.505       0.016272    -87.863       0.0047704   -111.67      
              0.0086571    74.037       0.99799     -9.426       
              0.99799     -9.4261       0.0086617    72.959       0.0047705   -111.65       0.016591    -116.4       
              0.047637     83.012       0.0088871    94.584      
              0.008697     74.062       0.99658     -9.9118       0.008697     74.062       0.047676     83.004      
              0.025719    -113.03       0.047676     83.004      
              0.0047705   -111.65       0.0086617    72.959       0.99799     -9.4261       0.0088871    94.584      
              0.047637     83.012       0.016591    -116.4       

 9            0.016452    -87.81        0.048239     76.352       0.008765     72.41        0.99795     -9.532       
              0.0087502    73.882       0.004825    -111.92      
              0.048278     76.36        0.025516    -92.61        0.048278     76.36        0.0087941    72.816      
              0.99651     -10.023       0.0087941    72.816      
              0.008765     72.41        0.048239     76.352       0.016452    -87.81        0.004825    -111.92      
              0.0087502    73.882       0.99795     -9.532       
              0.99795     -9.532        0.0087549    72.789       0.0048251   -111.9        0.016781    -116.69      
              0.048174     82.941       0.0089991    94.643      
              0.0087895    73.907       0.99651     -10.023       0.0087895    73.907       0.048212     82.933      
              0.026007    -113.29       0.048212     82.933      
              0.0048251   -111.9        0.0087549    72.789       0.99795     -9.532        0.0089991    94.643      
              0.048174     82.941       0.016781    -116.69      

 9.1          0.016631    -87.757       0.048778     76.2         0.0088698    72.192       0.99791     -9.638       
              0.0088432    73.727       0.0048797   -112.17      
              0.048817     76.207       0.025787    -92.614       0.048817     76.207       0.0088865    72.645      
              0.99644     -10.134       0.0088865    72.645      
              0.0088698    72.192       0.048778     76.2         0.016631    -87.757       0.0048797   -112.17      
              0.0088432    73.727       0.99791     -9.638       
              0.99791     -9.638        0.008848     72.618       0.0048798   -112.15       0.016971    -116.99      
              0.048711     82.871       0.0091115    94.702      
              0.0088818    73.751       0.99644     -10.134       0.0088818    73.751       0.048749     82.863      
              0.026294    -113.55       0.048749     82.863      
              0.0048798   -112.15       0.008848     72.618       0.99791     -9.638        0.0091115    94.702      
              0.048711     82.871       0.016971    -116.99      

 9.2          0.01681     -87.702       0.049318     76.047       0.008975     71.974       0.99787     -9.744       
              0.0089359    73.572       0.0049345   -112.42      
              0.049356     76.055       0.026058    -92.617       0.049356     76.055       0.0089787    72.474      
              0.99637     -10.246       0.0089787    72.474      
              0.008975     71.974       0.049318     76.047       0.01681     -87.702       0.0049345   -112.42      
              0.0089359    73.572       0.99787     -9.744       
              0.99788     -9.744        0.0089409    72.448       0.0049346   -112.4        0.017161    -117.28      
              0.049248     82.8         0.0092244    94.762      
              0.0089739    73.596       0.99637     -10.246       0.0089739    73.596       0.049285     82.792      
              0.026582    -113.81       0.049285     82.792      
              0.0049346   -112.4        0.0089409    72.448       0.99788     -9.744        0.0092244    94.762      
              0.049248     82.8         0.017161    -117.28      

 9.3          0.016989    -87.647       0.049858     75.894       0.0090805    71.755       0.99784     -9.8499      
              0.0090285    73.417       0.0049893   -112.67      
              0.049895     75.902       0.026328    -92.62        0.049895     75.902       0.0090706    72.303      
              0.9963      -10.357       0.0090706    72.303      
              0.0090805    71.755       0.049858     75.894       0.016989    -87.647       0.0049893   -112.67      
              0.0090285    73.417       0.99784     -9.8499      
              0.99784     -9.85         0.0090336    72.277       0.0049894   -112.66       0.017351    -117.58      
              0.049785     82.73        0.0093377    94.822      
              0.0090657    73.441       0.9963      -10.357       0.0090657    73.441       0.049821     82.722      
              0.026869    -114.07       0.049821     82.722      
              0.0049894   -112.66       0.0090336    72.277       0.99784     -9.85         0.0093377    94.822      
              0.049785     82.73        0.017351    -117.58      

 9.4          0.017168    -87.59        0.050398     75.741       0.0091863    71.535       0.9978      -9.9559      
              0.0091209    73.263       0.0050443   -112.92      
              0.050434     75.749       0.026598    -92.621       0.050434     75.749       0.0091623    72.132      
              0.99623     -10.468       0.0091623    72.132      
              0.0091863    71.535       0.050398     75.741       0.017168    -87.59        0.0050443   -112.92      
              0.0091209    73.263       0.9978      -9.9559      
              0.9978      -9.956        0.0091261    72.107       0.0050443   -112.91       0.017541    -117.87      
              0.050322     82.66        0.0094516    94.882      
              0.0091572    73.287       0.99623     -10.468       0.0091572    73.287       0.050358     82.652      
              0.027157    -114.33       0.050358     82.652      
              0.0050443   -112.91       0.0091261    72.107       0.9978      -9.956        0.0094516    94.882      
              0.050322     82.66        0.017541    -117.87      

 9.5          0.017347    -87.533       0.050939     75.588       0.0092924    71.314       0.99776     -10.062      
              0.0092131    73.109       0.0050993   -113.17      
              0.050974     75.595       0.026867    -92.622       0.050974     75.595       0.0092537    71.962      
              0.99616     -10.579       0.0092537    71.962      
              0.0092924    71.314       0.050939     75.588       0.017347    -87.533       0.0050993   -113.17      
              0.0092131    73.109       0.99776     -10.062      
              0.99776     -10.062       0.0092184    71.937       0.0050993   -113.16       0.017732    -118.17      
              0.05086      82.591       0.009566     94.942      
              0.0092485    73.132       0.99616     -10.579       0.0092485    73.132       0.050894     82.583      
              0.027444    -114.59       0.050894     82.583      
              0.0050993   -113.16       0.0092184    71.937       0.99776     -10.062       0.009566     94.942      
              0.05086      82.591       0.017732    -118.17      

 9.6          0.017525    -87.474       0.051479     75.435       0.0093989    71.093       0.99772     -10.168      
              0.009305     72.955       0.0051543   -113.42      
              0.051514     75.442       0.027136    -92.622       0.051514     75.442       0.0093449    71.791      
              0.99609     -10.691       0.0093449    71.791      
              0.0093989    71.093       0.051479     75.435       0.017525    -87.474       0.0051543   -113.42      
              0.009305     72.955       0.99772     -10.168      
              0.99772     -10.168       0.0093105    71.767       0.0051544   -113.41       0.017922    -118.47      
              0.051397     82.521       0.0096809    95.003      
              0.0093396    72.978       0.99609     -10.691       0.0093396    72.978       0.051431     82.513      
              0.027731    -114.85       0.051431     82.513      
              0.0051544   -113.41       0.0093105    71.767       0.99772     -10.168       0.0096809    95.003      
              0.051397     82.521       0.017922    -118.47      

 9.7          0.017704    -87.414       0.05202      75.281       0.0095057    70.87        0.99768     -10.274      
              0.0093968    72.802       0.0052095   -113.67      
              0.052054     75.288       0.027404    -92.622       0.052054     75.288       0.0094359    71.62       
              0.99602     -10.802       0.0094359    71.62       
              0.0095057    70.87        0.05202      75.281       0.017704    -87.414       0.0052095   -113.67      
              0.0093968    72.802       0.99768     -10.274      
              0.99768     -10.274       0.0094024    71.597       0.0052096   -113.66       0.018112    -118.77      
              0.051935     82.452       0.0097963    95.064      
              0.0094304    72.824       0.99601     -10.802       0.0094304    72.824       0.051968     82.444      
              0.028018    -115.12       0.051968     82.444      
              0.0052096   -113.66       0.0094024    71.597       0.99768     -10.274       0.0097963    95.064      
              0.051935     82.452       0.018112    -118.77      

 9.8          0.017882    -87.353       0.052562     75.127       0.0096129    70.646       0.99764     -10.38       
              0.0094883    72.648       0.0052648   -113.92      
              0.052594     75.134       0.027672    -92.62        0.052594     75.134       0.0095265    71.45       
              0.99594     -10.913       0.0095265    71.45       
              0.0096129    70.646       0.052562     75.127       0.017882    -87.353       0.0052648   -113.92      
              0.0094883    72.648       0.99764     -10.38       
              0.99764     -10.38        0.0094941    71.427       0.0052648   -113.91       0.018302    -119.07      
              0.052473     82.383       0.0099123    95.126      
              0.009521     72.67        0.99594     -10.913       0.009521     72.67        0.052504     82.375      
              0.028305    -115.38       0.052504     82.375      
              0.0052648   -113.91       0.0094941    71.427       0.99764     -10.38        0.0099123    95.126      
              0.052473     82.383       0.018302    -119.07      

 9.9          0.01806     -87.291       0.053103     74.973       0.0097204    70.422       0.9976      -10.486      
              0.0095796    72.496       0.0053201   -114.17      
              0.053134     74.98        0.027939    -92.617       0.053134     74.98        0.0096169    71.28       
              0.99587     -11.025       0.0096169    71.28       
              0.0097204    70.422       0.053103     74.973       0.01806     -87.291       0.0053201   -114.17      
              0.0095796    72.496       0.9976      -10.486      
              0.9976      -10.486       0.0095855    71.257       0.0053202   -114.16       0.018493    -119.37      
              0.053011     82.314       0.010029     95.188      
              0.0096112    72.517       0.99587     -11.024       0.0096112    72.517       0.053042     82.306      
              0.028592    -115.64       0.053042     82.306      
              0.0053202   -114.16       0.0095855    71.257       0.9976      -10.486       0.010029     95.188      
              0.053011     82.314       0.018493    -119.37      

 10           0.018238    -87.227       0.053645     74.819       0.0098283    70.196       0.99756     -10.592      
              0.0096707    72.343       0.0053755   -114.43      
              0.053675     74.826       0.028205    -92.614       0.053675     74.826       0.009707     71.11       
              0.99579     -11.136       0.009707     71.11       
              0.0098283    70.196       0.053645     74.819       0.018238    -87.227       0.0053755   -114.43      
              0.0096707    72.343       0.99756     -10.592      
              0.99756     -10.592       0.0096767    71.087       0.0053756   -114.41       0.018683    -119.68      
              0.053549     82.245       0.010146     95.25       
              0.0097012    72.364       0.99579     -11.136       0.0097012    72.364       0.053579     82.238      
              0.028878    -115.91       0.053579     82.238      
              0.0053756   -114.41       0.0096767    71.087       0.99756     -10.592       0.010146     95.25       
              0.053549     82.245       0.018683    -119.68      

 10.5         0.019124    -86.891       0.056358     74.044       0.010374     69.052       0.99735     -11.122      
              0.010123     71.584       0.0056543   -115.68      
              0.056382     74.051       0.02953     -92.58        0.056382     74.051       0.010153     70.26       
              0.99541     -11.692       0.010153     70.26       
              0.010374     69.052       0.056358     74.044       0.019124    -86.891       0.0056543   -115.68      
              0.010123     71.584       0.99735     -11.122      
              0.99735     -11.122       0.010129     70.241       0.0056543   -115.67       0.019636    -121.2       
              0.056244     81.906       0.01074      95.567      
              0.010147     71.602       0.99541     -11.692       0.010147     71.602       0.056267     81.9        
              0.03031     -117.25       0.056267     81.9        
              0.0056543   -115.67       0.010129     70.241       0.99735     -11.122       0.01074      95.567      
              0.056244     81.906       0.019636    -121.2       

 11           0.020006    -86.519       0.059079     73.263       0.01093      67.881       0.99713     -11.653      
              0.010568     70.833       0.0059358   -116.94      
              0.059095     73.269       0.030841    -92.519       0.059095     73.269       0.010592     69.412      
              0.99501     -12.249       0.010592     69.412      
              0.01093      67.881       0.059079     73.263       0.020006    -86.519       0.0059358   -116.94      
              0.010568     70.833       0.99713     -11.653      
              0.99713     -11.653       0.010575     69.398       0.0059359   -116.93       0.020592    -122.76      
              0.058944     81.573       0.011349     95.894      
              0.010585     70.848       0.99501     -12.249       0.010585     70.848       0.058961     81.568      
              0.031738    -118.61       0.058961     81.568      
              0.0059359   -116.93       0.010575     69.398       0.99713     -11.653       0.011349     95.894      
              0.058944     81.573       0.020592    -122.76      

 11.5         0.020885    -86.108       0.061809     72.475       0.011497     66.679       0.9969      -12.184      
              0.011006     70.091       0.0062207   -118.2       
              0.061817     72.48        0.032138    -92.426       0.061817     72.48        0.011022     68.568      
              0.99459     -12.806       0.011022     68.568      
              0.011497     66.679       0.061809     72.475       0.020885    -86.108       0.0062207   -118.2       
              0.011006     70.091       0.9969      -12.184      
              0.9969      -12.184       0.011014     68.558       0.0062207   -118.19       0.021551    -124.35      
              0.061652     81.248       0.011976     96.233      
              0.011014     70.102       0.99459     -12.806       0.011014     70.102       0.06166      81.245      
              0.033165    -119.99       0.06166      81.245      
              0.0062207   -118.19       0.011014     68.558       0.9969      -12.184       0.011976     96.233      
              0.061652     81.248       0.021551    -124.35      

 12           0.021762    -85.653       0.06455      71.678       0.012078     65.445       0.99666     -12.715      
              0.011437     69.359       0.0065095   -119.47      
              0.064548     71.682       0.03342     -92.299       0.064548     71.682       0.011442     67.726      
              0.99415     -13.363       0.011442     67.726      
              0.012078     65.445       0.06455      71.678       0.021762    -85.653       0.0065095   -119.47      
              0.011437     69.359       0.99666     -12.715      
              0.99666     -12.715       0.011445     67.722       0.0065094   -119.46       0.022515    -125.98      
              0.064368     80.932       0.012622     96.585      
              0.011435     69.365       0.99415     -13.363       0.011435     69.365       0.064365     80.93       
              0.03459     -121.4        0.064365     80.93       
              0.0065094   -119.46       0.011445     67.722       0.99666     -12.715       0.012622     96.585      
              0.064368     80.932       0.022515    -125.98      

 12.5         0.022638    -85.15        0.067303     70.872       0.012674     64.174       0.99641     -13.247      
              0.011859     68.637       0.0068026   -120.73      
              0.067289     70.876       0.03469     -92.133       0.067289     70.876       0.011852     66.888      
              0.9937      -13.92        0.011852     66.888      
              0.012674     64.174       0.067303     70.872       0.022638    -85.15        0.0068026   -120.73      
              0.011859     68.637       0.99641     -13.247      
              0.99641     -13.247       0.011867     66.89        0.0068025   -120.72       0.023486    -127.64      
              0.067093     80.625       0.013289     96.951      
              0.011845     68.638       0.9937      -13.92        0.011845     68.638       0.067079     80.625      
              0.036016    -122.84       0.067079     80.625      
              0.0068025   -120.72       0.011867     66.89        0.99641     -13.247       0.013289     96.951      
              0.067093     80.625       0.023486    -127.64      

 13           0.023515    -84.594       0.07007      70.056       0.013286     62.864       0.99615     -13.779      
              0.012272     67.927       0.0071007   -122         
              0.070042     70.058       0.035947    -91.924       0.070042     70.058       0.012251     66.053      
              0.99322     -14.478       0.012251     66.053      
              0.013286     62.864       0.07007      70.056       0.023515    -84.594       0.0071007   -122         
              0.012272     67.927       0.99615     -13.779      
              0.99615     -13.779       0.012279     66.063       0.0071005   -121.99       0.024465    -129.35      
              0.06983      80.328       0.013978     97.334      
              0.012244     67.923       0.99322     -14.478       0.012244     67.923       0.069802     80.331      
              0.037445    -124.32       0.069802     80.331      
              0.0071005   -121.99       0.012279     66.063       0.99615     -13.779       0.013978     97.334      
              0.06983      80.328       0.024465    -129.35      

 13.5         0.024396    -83.981       0.072852     69.228       0.013916     61.512       0.99589     -14.312      
              0.012675     67.23        0.0074046   -123.27      
              0.072808     69.229       0.037192    -91.668       0.072808     69.229       0.012637     65.222      
              0.99273     -15.036       0.012637     65.222      
              0.013916     61.512       0.072852     69.228       0.024396    -83.981       0.0074046   -123.27      
              0.012675     67.23        0.99589     -14.312      
              0.99589     -14.312       0.012681     65.24        0.0074043   -123.27       0.025457    -131.1       
              0.072578     80.044       0.014694     97.735      
              0.012631     67.219       0.99273     -15.036       0.012631     67.219       0.072536     80.048      
              0.038877    -125.83       0.072536     80.048      
              0.0074043   -123.27       0.012681     65.24        0.99589     -14.312       0.014694     97.735      
              0.072578     80.044       0.025457    -131.1       

 14           0.025284    -83.305       0.075652     68.388       0.014567     60.113       0.99561     -14.845      
              0.013067     66.548       0.0077151   -124.54      
              0.07559      68.386       0.038429    -91.359       0.07559      68.386       0.013009     64.395      
              0.99222     -15.595       0.013009     64.395      
              0.014567     60.113       0.075652     68.388       0.025284    -83.305       0.0077151   -124.54      
              0.013067     66.548       0.99561     -14.845      
              0.99561     -14.845       0.013072     64.423       0.0077146   -124.54       0.026464    -132.91      
              0.075342     79.772       0.015437     98.157      
              0.013004     66.53        0.99222     -15.595       0.013004     66.53        0.075282     79.78       
              0.040318    -127.39       0.075282     79.78       
              0.0077146   -124.54       0.013072     64.423       0.99561     -14.845       0.015437     98.157      
              0.075342     79.772       0.026464    -132.91      

 14.5         0.026184    -82.563       0.07847      67.532       0.015242     58.663       0.99532     -15.379      
              0.013447     65.883       0.008033    -125.81      
              0.078388     67.528       0.03966     -90.994       0.078388     67.528       0.013367     63.572      
              0.99169     -16.154       0.013367     63.572      
              0.015242     58.663       0.07847      67.532       0.026184    -82.563       0.008033    -125.81      
              0.013447     65.883       0.99532     -15.379      
              0.99531     -15.379       0.013449     63.612       0.0080323   -125.82       0.027492    -134.77      
              0.078121     79.515       0.016212     98.602      
              0.013364     65.857       0.99169     -16.154       0.013364     65.857       0.078043     79.526      
              0.041771    -128.98       0.078043     79.526      
              0.0080323   -125.82       0.013449     63.612       0.99531     -15.379       0.016212     98.602      
              0.078121     79.515       0.027492    -134.77      

 15           0.0271      -81.751       0.08131      66.659       0.015942     57.157       0.99501     -15.913      
              0.013814     65.235       0.0083595   -127.09      
              0.081205     66.653       0.040889    -90.566       0.081205     66.653       0.013708     62.754      
              0.99114     -16.714       0.013708     62.754      
              0.015942     57.157       0.08131      66.659       0.0271      -81.751       0.0083595   -127.09      
              0.013814     65.235       0.99501     -15.913      
              0.99501     -15.913       0.013814     62.807       0.0083586   -127.1        0.028545    -136.68      
              0.080918     79.275       0.017021     99.073      
              0.013707     65.2         0.99114     -16.714       0.013707     65.2         0.080819     79.29       
              0.043239    -130.63       0.080819     79.29       
              0.0083586   -127.1        0.013814     62.807       0.99501     -15.913       0.017021     99.073      
              0.080918     79.275       0.028545    -136.68      

 15.5         0.028039    -80.864       0.084174     65.768       0.016672     55.591       0.9947      -16.449      
              0.014167     64.608       0.0086957   -128.37      
              0.084044     65.758       0.04212     -90.07        0.084044     65.758       0.014031     61.942      
              0.99056     -17.274       0.014031     61.942      
              0.016672     55.591       0.084174     65.768       0.028039    -80.864       0.0086957   -128.37      
              0.014167     64.608       0.9947      -16.449      
              0.9947      -16.449       0.014162     62.009       0.0086945   -128.38       0.02963     -138.65      
              0.083737     79.053       0.017869     99.572      
              0.014034     64.564       0.99056     -17.274       0.014034     64.564       0.083614     79.072      
              0.04473     -132.32       0.083614     79.072      
              0.0086945   -128.38       0.014162     62.009       0.9947      -16.449       0.017869     99.572      
              0.083737     79.053       0.02963     -138.65      

 16           0.029008    -79.9         0.087065     64.856       0.017435     53.958       0.99437     -16.985      
              0.014505     64.005       0.0090432   -129.65      
              0.086906     64.842       0.043359    -89.501       0.086906     64.842       0.014334     61.136      
              0.98997     -17.836       0.014334     61.136      
              0.017435     53.958       0.087065     64.856       0.029008    -79.9         0.0090432   -129.65      
              0.014505     64.005       0.99437     -16.985      
              0.99437     -16.985       0.014495     61.219       0.0090416   -129.67       0.030755    -140.68      
              0.086578     78.852       0.018761     100.1       
              0.014342     63.95        0.98997     -17.836       0.014342     63.95        0.086429     78.876      
              0.046251    -134.07       0.086429     78.876      
              0.0090416   -129.67       0.014495     61.219       0.99437     -16.985       0.018761     100.1       
              0.086578     78.852       0.030755    -140.68      

 16.5         0.030017    -78.854       0.089986     63.919       0.018237     52.252       0.99403     -17.522      
              0.014825     63.427       0.0094036   -130.93      
              0.089794     63.901       0.044615    -88.851       0.089794     63.901       0.014615     60.337      
              0.98934     -18.398       0.014615     60.337      
              0.018237     52.252       0.089986     63.919       0.030017    -78.854       0.0094036   -130.93      
              0.014825     63.427       0.99403     -17.522      
              0.99402     -17.522       0.014808     60.438       0.0094015   -130.95       0.031928    -142.78      
              0.089446     78.674       0.019701     100.67      
              0.01463      63.362       0.98935     -18.398       0.01463      63.362       0.089267     78.704      
              0.047809    -135.88       0.089267     78.704      
              0.0094015   -130.95       0.014808     60.438       0.99402     -17.522       0.019701     100.67      
              0.089446     78.674       0.031928    -142.78      

 17           0.031076    -77.726       0.092939     62.954       0.019082     50.466       0.99367     -18.061      
              0.015127     62.881       0.0097791   -132.22      
              0.092712     62.932       0.045896    -88.115       0.092712     62.932       0.014871     59.546      
              0.9887      -18.961       0.014871     59.546      
              0.019082     50.466       0.092939     62.954       0.031076    -77.726       0.0097791   -132.22      
              0.015127     62.881       0.99367     -18.061      
              0.99366     -18.06        0.0151       59.668       0.0097764   -132.25       0.03316     -144.93      
              0.092343     78.522       0.020697     101.28      
              0.014894     62.804       0.9887      -18.962       0.014894     62.804       0.092133     78.559      
              0.049414    -137.74       0.092133     78.559      
              0.0097764   -132.25       0.0151       59.668       0.99366     -18.06        0.020697     101.28      
              0.092343     78.522       0.03316     -144.93      

 17.5         0.032199    -76.514       0.09593      61.959       0.019978     48.592       0.99329     -18.6        
              0.015407     62.369       0.010172    -133.5       
              0.095663     61.931       0.047214    -87.285       0.095663     61.931       0.015099     58.765      
              0.98802     -19.526       0.015099     58.765      
              0.019978     48.592       0.09593      61.959       0.032199    -76.514       0.010172    -133.5       
              0.015407     62.369       0.99329     -18.6        
              0.99329     -18.6         0.015369     58.909       0.010169    -133.54       0.034462    -147.15      
              0.095274     78.401       0.021755     101.94      
              0.015133     62.281       0.98803     -19.526       0.015133     62.281       0.095028     78.445      
              0.051079    -139.67       0.095028     78.445      
              0.010169    -133.54       0.015369     58.909       0.99329     -18.6         0.021755     101.94      
              0.095274     78.401       0.034462    -147.15      

 18           0.0334      -75.217       0.098962     60.926       0.020932     46.619       0.9929      -19.141      
              0.015664     61.898       0.010586    -134.79      
              0.098651     60.892       0.048584    -86.354       0.098651     60.892       0.015295     57.994      
              0.98732     -20.092       0.015295     57.994      
              0.020932     46.619       0.098962     60.926       0.0334      -75.217       0.010586    -134.79      
              0.015664     61.898       0.9929      -19.141      
              0.99289     -19.141       0.015611     58.164       0.010582    -134.83       0.03585     -149.43      
              0.098244     78.313       0.022886     102.64      
              0.015343     61.798       0.98733     -20.093       0.015343     61.798       0.097959     78.366      
              0.052818    -141.67       0.097959     78.366      
              0.010582    -134.83       0.015611     58.164       0.99289     -19.141       0.022886     102.64      
              0.098244     78.313       0.03585     -149.43      

 18.5         0.034698    -73.836       0.10204      59.853       0.021954     44.537       0.99248     -19.684      
              0.015893     61.476       0.011025    -136.07      
              0.10168      59.811       0.050025    -85.316       0.10168      59.811       0.015454     57.236      
              0.98658     -20.66        0.015454     57.236      
              0.021954     44.537       0.10204      59.853       0.034698    -73.836       0.011025    -136.07      
              0.015893     61.476       0.99248     -19.684      
              0.99247     -19.683       0.015821     57.434       0.011019    -136.13       0.037339    -151.77      
              0.10126      78.265       0.024099     103.41      
              0.015519     61.365       0.98659     -20.661       0.015519     61.365       0.10093      78.327      
              0.054648    -143.74       0.10093      78.327      
              0.011019    -136.13       0.015821     57.434       0.99247     -19.683       0.024099     103.41      
              0.10126      78.265       0.037339    -151.77      

 19           0.036117    -72.373       0.10517      58.73        0.023056     42.332       0.99204     -20.228      
              0.016089     61.111       0.011494    -137.36      
              0.10476      58.68        0.051558    -84.161       0.10476      58.68        0.01557      56.493      
              0.9858      -21.229       0.01557      56.493      
              0.023056     42.332       0.10517      58.73        0.036117    -72.373       0.011494    -137.36      
              0.016089     61.111       0.99204     -20.228      
              0.99203     -20.228       0.015993     56.724       0.011487    -137.42       0.03895     -154.17      
              0.10432      78.263       0.025408     104.24      
              0.015657     60.99        0.98582     -21.231       0.015657     60.99        0.10394      78.335      
              0.056591    -145.88       0.10394      78.335      
              0.011487    -137.42       0.015993     56.724       0.99203     -20.228       0.025408     104.24      
              0.10432      78.263       0.03895     -154.17      

 19.5         0.037682    -70.832       0.10836      57.55        0.024254     39.989       0.99157     -20.775      
              0.016248     60.817       0.012       -138.63      
              0.10788      57.49        0.053214    -82.883       0.10788      57.49        0.015634     55.77       
              0.98498     -21.802       0.015634     55.77       
              0.024254     39.989       0.10836      57.55        0.037682    -70.832       0.012       -138.63      
              0.016248     60.817       0.99157     -20.775      
              0.99156     -20.774       0.016121     56.037       0.011991    -138.71       0.040707    -156.63      
              0.10744      78.313       0.026829     105.15      
              0.015749     60.688       0.985       -21.803       0.015749     60.688       0.10701      78.397      
              0.058671    -148.11       0.10701      78.397      
              0.011991    -138.71       0.016121     56.037       0.99156     -20.774       0.026829     105.15      
              0.10744      78.313       0.040707    -156.63      

 20           0.039429    -69.217       0.11162      56.301       0.025566     37.487       0.99106     -21.325      
              0.01636      60.61        0.012553    -139.9       
              0.11107      56.23        0.05503     -81.472       0.11107      56.23        0.015635     55.07       
              0.98412     -22.377       0.015635     55.07       
              0.025566     37.487       0.11162      56.301       0.039429    -69.217       0.012553    -139.9       
              0.01636      60.61        0.99106     -21.325      
              0.99105     -21.324       0.016194     55.378       0.012542    -139.98       0.042639    -159.15      
              0.11063      78.425       0.028384     106.15      
              0.015787     60.477       0.98414     -22.379       0.015787     60.477       0.11015      78.523      
              0.060922    -150.41       0.11015      78.523      
              0.012542    -139.98       0.016194     55.378       0.99105     -21.324       0.028384     106.15      
              0.11063      78.425       0.042639    -159.15      

 20.5         0.041401    -67.536       0.11496      54.971       0.027018     34.804       0.99052     -21.878      
              0.016413     60.514       0.013165    -141.15      
              0.11433      54.886       0.057056    -79.922       0.11433      54.886       0.015558     54.401      
              0.9832      -22.956       0.015558     54.401      
              0.027018     34.804       0.11496      54.971       0.041401    -67.536       0.013165    -141.15      
              0.016413     60.514       0.99052     -21.878      
              0.99051     -21.877       0.016198     54.755       0.013151    -141.25       0.044783    -161.71      
              0.1139       78.612       0.0301       107.25      
              0.015756     60.383       0.98322     -22.959       0.015756     60.383       0.11335      78.726      
              0.063384    -152.8        0.11335      78.726      
              0.013151    -141.25       0.016198     54.755       0.99051     -21.877       0.0301       107.25      
              0.1139       78.612       0.044783    -161.71      

 21           0.043654    -65.798       0.11838      53.54        0.028642     31.907       0.98993     -22.436      
              0.016393     60.563       0.013854    -142.37      
              0.11767      53.438       0.059357    -78.226       0.11767      53.438       0.015381     53.773      
              0.98221     -23.541       0.015381     53.773      
              0.028642     31.907       0.11838      53.54        0.043654    -65.798       0.013854    -142.37      
              0.016393     60.563       0.98993     -22.436      
              0.98992     -22.434       0.016112     54.179       0.013837    -142.48       0.047186    -164.33      
              0.11726      78.887       0.032011     108.47      
              0.01564      60.446       0.98224     -23.544       0.01564      60.446       0.11665      79.02       
              0.06611     -155.29       0.11665      79.02       
              0.013837    -142.48       0.016112     54.179       0.98992     -22.434       0.032011     108.47      
              0.11726      78.887       0.047186    -164.33      

 21.5         0.046262    -64.015       0.1219       51.983       0.030484     28.755       0.98928     -23          
              0.016274     60.808       0.014648    -143.56      
              0.12109      51.862       0.062026    -76.376       0.12109      51.862       0.015074     53.202      
              0.98115     -24.132       0.015074     53.202      
              0.030484     28.755       0.1219       51.983       0.046262    -64.015       0.014648    -143.56      
              0.016274     60.808       0.98928     -23          
              0.98927     -22.998       0.015908     53.667       0.014625    -143.68       0.049908    -167         
              0.12075      79.273       0.034165     109.83      
              0.015413     60.724       0.98118     -24.136       0.015413     60.724       0.12006      79.427      
              0.06917     -157.87       0.12006      79.427      
              0.014625    -143.68       0.015908     53.667       0.98927     -22.998       0.034165     109.83      
              0.12075      79.273       0.049908    -167         

 22           0.049329    -62.206       0.12555      50.263       0.032606     25.291       0.98855     -23.572      
              0.016021     61.335       0.015584    -144.69      
              0.12463      50.12        0.065191    -74.371       0.12463      50.12        0.014589     52.717      
              0.97999     -24.732       0.014589     52.717      
              0.032606     25.291       0.12555      50.263       0.049329    -62.206       0.015584    -144.69      
              0.016021     61.335       0.98855     -23.572      
              0.98854     -23.569       0.015541     53.247       0.015556    -144.82       0.053034    -169.71      
              0.12438      79.797       0.03663      111.36      
              0.015037     61.317       0.98002     -24.738       0.015037     61.317       0.12361      79.976      
              0.07266     -160.57       0.12361      79.976      
              0.015556    -144.82       0.015541     53.247       0.98854     -23.569       0.03663      111.36      
              0.12438      79.797       0.053034    -169.71      

 22.5         0.053004    -60.394       0.12934      48.33        0.0351       21.431       0.98772     -24.155      
              0.015579     62.293       0.016728    -145.72      
              0.12829      48.158       0.069044    -72.212       0.12829      48.158       0.013854     52.37       
              0.97869     -25.346       0.013854     52.37       
              0.0351       21.431       0.12934      48.33        0.053004    -60.394       0.016728    -145.72      
              0.015579     62.293       0.98772     -24.155      
              0.9877      -24.152       0.014941     52.972       0.016691    -145.88       0.056684    -172.48      
              0.1282       80.5         0.039502     113.11      
              0.014454     62.404       0.97873     -25.353       0.014454     62.404       0.12735      80.708      
              0.076719    -163.39       0.12735      80.708      
              0.016691    -145.88       0.014941     52.972       0.9877      -24.152       0.039502     113.11      
              0.1282       80.5         0.056684    -172.48      

 23           0.057519    -58.62        0.13329      46.098       0.038106     17.051       0.98674     -24.756      
              0.014857     63.974       0.018184    -146.64      
              0.1321       45.892       0.073882    -69.911       0.1321       45.892       0.012748     52.279      
              0.97721     -25.98        0.012748     52.279      
              0.038106     17.051       0.13329      46.098       0.057519    -58.62        0.018184    -146.64      
              0.014857     63.974       0.98674     -24.756      
              0.98672     -24.752       0.01399      52.952       0.018136    -146.81       0.061038    -175.3       
              0.13229      81.444       0.042932     115.14      
              0.013574     64.347       0.97725     -25.989       0.013574     64.347       0.13134      81.687      
              0.081556    -166.35       0.13134      81.687      
              0.018136    -146.81       0.01399      52.952       0.98672     -24.752       0.042932     115.14      
              0.13229      81.444       0.061038    -175.3       

 23.5         0.063249    -56.953       0.13742      43.43        0.041858     11.947       0.98552     -25.385      
              0.013708     67.053       0.020141    -147.38      
              0.13608      43.179       0.0802      -67.506       0.13608      43.179       0.011061     52.767      
              0.97546     -26.647       0.011061     52.767      
              0.041858     11.947       0.13742      43.43        0.063249    -56.953       0.020141    -147.38      
              0.013708     67.053       0.98552     -25.385      
              0.9855      -25.38        0.012481     53.475       0.020077    -147.56       0.066386    -178.18      
              0.13676      82.727       0.047168     117.52      
              0.01225      68.004       0.9755      -26.658       0.01225      68.004       0.13572      83.012      
              0.087508    -169.47       0.13572      83.012      
              0.020077    -147.56       0.012481     53.475       0.9855      -25.38        0.047168     117.52      
              0.13676      82.727       0.066386    -178.18      

 24           0.07087     -55.525       0.14176      40.071       0.046777     5.761        0.9839      -26.061      
              0.011892     73.447       0.022973    -147.88      
              0.14024      39.762       0.088895    -65.087       0.14024      39.762       0.00839      55.078      
              0.97325     -27.369       0.00839      55.078      
              0.046777     5.761        0.14176      40.071       0.07087     -55.525       0.022973    -147.88      
              0.011892     73.447       0.9839      -26.061      
              0.98388     -26.054       0.010017     55.552       0.022887    -148.07       0.073245     178.85      
              0.14183      84.521       0.052667     120.4       
              0.010273     75.949       0.97329     -27.383       0.010273     75.949       0.1407       84.856      
              0.095167    -172.82       0.1407       84.856      
              0.022887    -148.07       0.010017     55.552       0.98388     -26.054       0.052667     120.4       
              0.14183      84.521       0.073245     178.85      

 24.5         0.08175     -54.633       0.14624      35.486       0.05373     -2.2044       0.98148     -26.829      
              0.0092366    90.663       0.027514    -148.17      
              0.14455      35.096       0.1018      -62.889       0.14455      35.096       0.0040056    70.103      
              0.97014     -28.2         0.0040056    70.103      
              0.05373     -2.2044       0.14624      35.486       0.08175     -54.633       0.027514    -148.17      
              0.0092366    90.663       0.98148     -26.829      
              0.98147     -26.82        0.005828     65.886       0.027394    -148.35       0.082645     175.74      
              0.14803      87.156       0.060376     123.99      
              0.0077056    98.744       0.97017     -28.218       0.0077056    98.744       0.14684      87.551      
              0.10571     -176.49       0.14684      87.551      
              0.027394    -148.35       0.005828     65.886       0.98147     -26.82        0.060376     123.99      
              0.14803      87.156       0.082645     175.74      

 25           0.099155    -55.073       0.1505       28.327       0.064863    -13.526       0.97702     -27.799      
              0.0088913    144.86       0.036011    -148.56      
              0.14866      27.815       0.12334     -61.607       0.14866      27.815       0.0060767   -163.09      
              0.96479     -29.271       0.0060767   -163.09      
              0.064863    -13.526       0.1505       28.327       0.099155    -55.073       0.036011    -148.56      
              0.0088913    144.86       0.97702     -27.799      
              0.97702     -27.787       0.0046056   -179.44       0.035837    -148.72       0.097048     172.3       
              0.15689      91.353       0.072704     128.59      
              0.0091717    158.87       0.96479     -29.296       0.0091717    158.87       0.15572      91.818      
              0.12194      179.24       0.15572      91.818      
              0.035837    -148.72       0.0046056   -179.44       0.97702     -27.787       0.072704     128.59      
              0.15689      91.353       0.097048     172.3       

 25.5         0.13311     -59.694       0.15219      13.925       0.087221    -32.759       0.9648      -29.332      
              0.026759    -173.19       0.056562    -151.11      
              0.1504       13.191       0.16732     -63.892       0.1504       13.191       0.028482    -153.81      
              0.95085     -31.024       0.028482    -153.81      
              0.087221    -32.759       0.15219      13.925       0.13311     -59.694       0.056562    -151.11      
              0.026759    -173.19       0.9648      -29.332      
              0.96484     -29.315       0.026401    -155.96       0.056292    -151.23       0.12423      167.68      
              0.175        98.859       0.097897     134.23      
              0.028609    -169.73       0.95076     -31.061       0.028609    -169.73       0.17408      99.371      
              0.15251      173.42       0.17408      99.371      
              0.056292    -151.23       0.026401    -155.96       0.96484     -29.315       0.097897     134.23      
              0.175        98.859       0.12423      167.68      

 26           0.22055     -85.286       0.12772     -39.047       0.1523      -80.889       0.89115     -32.264      
              0.11321      177.93       0.13434     -170.62      
              0.12768     -40.261       0.28694     -85.972       0.12768     -40.261       0.11747     -175.1       
              0.86687     -34.676       0.11747     -175.1       
              0.1523      -80.889       0.12772     -39.047       0.22055     -85.286       0.13434     -170.62      
              0.11321      177.93       0.89115     -32.264      
              0.89137     -32.237       0.11583     -175.68       0.1339      -170.69       0.19934      154.85      
              0.25144      110.13       0.17891      134.3       
              0.115        178.66       0.86642     -34.734       0.115        178.66       0.25132      110.44      
              0.23537      159.16       0.25132      110.44      
              0.1339      -170.69       0.11583     -175.68       0.89137     -32.237       0.17891      134.3       
              0.25144      110.13       0.19934      154.85      

 26.5         0.23222      129.44       0.36647      105.19       0.28818      119.51       0.66551      0.62504     
              0.57823      111.98       0.51697      114.66      
              0.36605      104.34       0.27609      138.5        0.36605      104.34       0.57214      111.35      
              0.59992      8.3184       0.57214      111.35      
              0.28818      119.51       0.36647      105.19       0.23222      129.44       0.51697      114.66      
              0.57823      111.98       0.66551      0.62504     
              0.66661      0.78536      0.56985      112.04       0.51823      114.47       0.75662      131.8       
              0.88759      121.43       0.75303      126.33      
              0.57974      111.43       0.59697      7.9708       0.57974      111.43       0.89127      121.02      
              0.92999      135.18       0.89127      121.02      
              0.51823      114.47       0.56985      112.04       0.66661      0.78536      0.75303      126.33      
              0.88759      121.43       0.75662      131.8       

 27           0.045628    -145.59       0.14783      77.191       0.060197     122.77       0.9812      -26.845      
              0.0598       58.453       0.028917     85.804      
              0.14322      77.753       0.082879    -148.97       0.14322      77.753       0.05548      60.866      
              0.96854     -27.894       0.05548      60.866      
              0.060197     122.77       0.14783      77.191       0.045628    -145.59       0.028917     85.804      
              0.0598       58.453       0.9812      -26.845      
              0.98118     -26.86        0.061146     60.873       0.028698     86.04        0.010105    -20.031      
              0.19142      47.304       0.079711     26.401      
              0.054348     58.174       0.9686      -27.863       0.054348     58.174       0.18634      46.898      
              0.02784     -77.033       0.18634      46.898      
              0.028698     86.04        0.061146     60.873       0.98118     -26.86        0.079711     26.401      
              0.19142      47.304       0.010105    -20.031      

 27.5         0.013757    -78.324       0.17881      62.356       0.060511     78.515       0.97655     -26.785      
              0.068305     65.05        0.03489      92.866      
              0.17312      62.378       0.034694    -122.49       0.17312      62.378       0.062604     64.619      
              0.95984     -27.95        0.062604     64.619      
              0.060511     78.515       0.17881      62.356       0.013757    -78.324       0.03489      92.866      
              0.068305     65.05        0.97655     -26.785      
              0.97656     -26.785       0.068857     64.271       0.034881     92.854       0.03624      146.6       
              0.19086      63.343       0.069008     66.354      
              0.062093     65.478       0.95982     -27.95        0.062093     65.478       0.18533      63.43       
              0.048595     174.67       0.18533      63.43       
              0.034881     92.854       0.068857     64.271       0.97656     -26.785       0.069008     66.354      
              0.19086      63.343       0.03624      146.6       

 28           0.027875     13.729       0.21503      58.887       0.08838      66.996       0.97384     -26.282      
              0.08962      66.977       0.0541       85.212      
              0.20815      58.79        0.0087947   -24.642       0.20815      58.79        0.082218     65.484      
              0.95383     -27.221       0.082218     65.484      
              0.08838      66.996       0.21503      58.887       0.027875     13.729       0.0541       85.212      
              0.08962      66.977       0.97384     -26.282      
              0.97391     -26.282       0.089852     65.294       0.054078     85.141       0.057989     135.16      
              0.21007      68.19        0.086575     75.765      
              0.082002     67.336       0.95369     -27.223       0.082002     67.336       0.2033       68.268      
              0.068731     155.21       0.2033       68.268      
              0.054078     85.141       0.089852     65.294       0.97391     -26.282       0.086575     75.765      
              0.21007      68.19        0.057989     135.16      

 28.5         0.31568     -45.229       0.34751     -10.362       0.2726      -32.747       1.1         -36.077      
              0.15042     -64.52        0.15594     -80.629      
              0.33876     -13.205       0.38618     -46.972       0.33876     -13.205       0.17191     -70.266      
              1.1153      -38.355       0.17191     -70.266      
              0.2726      -32.747       0.34751     -10.362       0.31568     -45.229       0.15594     -80.629      
              0.15042     -64.52        1.1         -36.077      
              1.1         -35.962       0.1642      -64.237       0.15446     -80.025       0.15299     -144.48      
              0.058042     92.905       0.075236    -141.86      
              0.15895     -71.58        1.1151      -38.601       0.15895     -71.58        0.050371     108.55      
              0.20246     -142.61       0.050371     108.55      
              0.15446     -80.025       0.1642      -64.237       1.1         -35.962       0.075236    -141.86      
              0.058042     92.905       0.15299     -144.48      

 29           0.13533     -48.494       0.20498      20.026       0.098876    -13.243       0.97682     -31.06       
              0.02737      64.348       0.022009    -175.73      
              0.18956      22.458       0.14869     -56.989       0.18956      22.458       0.01289      138.01      
              0.94509     -33.255       0.01289      138.01      
              0.098876    -13.243       0.20498      20.026       0.13533     -48.494       0.022009    -175.73      
              0.02737      64.348       0.97682     -31.06       
              0.97749     -31.162       0.019993     47.929       0.02254     -171.15       0.11926      160.51      
              0.19699      86.57        0.092668     118.58      
              0.02266      120.88       0.94321     -33.051       0.02266      120.88       0.1854       92.966      
              0.16527      171.36       0.1854       92.966      
              0.02254     -171.15       0.019993     47.929       0.97749     -31.162       0.092668     118.58      
              0.19699      86.57        0.11926      160.51      

 29.5         0.13916     -41.351       0.22817      21.421       0.11241     -5.9897       0.95788     -31.006      
              0.047098     89.648       0.036795     150.66      
              0.21986      19.319       0.17057     -47.195       0.21986      19.319       0.035289     102.48      
              0.93016     -32.125       0.035289     102.48      
              0.11241     -5.9897       0.22817      21.421       0.13916     -41.351       0.036795     150.66      
              0.047098     89.648       0.95788     -31.006      
              0.95732     -30.894       0.040899     86.339       0.037353     147.75       0.14569      154.46      
              0.22408      91.779       0.12063      120.57      
              0.041331     104.65       0.93121     -32.361       0.041331     104.65       0.22193      94.945      
              0.18865      160.22       0.22193      94.945      
              0.037353     147.75       0.040899     86.339       0.95732     -30.894       0.12063      120.57      
              0.22408      91.779       0.14569      154.46      

 30           0.16968     -33.518       0.26206      16.948       0.14863     -4.5763       0.93435     -30.6        
              0.070788     101.78       0.061876     134.58      
              0.25496      14.68        0.20827     -44.042       0.25496      14.68        0.061405     110.34      
              0.90301     -32.347       0.061405     110.34      
              0.14863     -4.5763       0.26206      16.948       0.16968     -33.518       0.061876     134.58      
              0.070788     101.78       0.93435     -30.6        
              0.93244     -30.419       0.060659     95.402       0.064522     132.49       0.18803      149.38      
              0.25592      96.622       0.16259      123.13      
              0.071784     115.54       0.90664     -32.74        0.071784     115.54       0.26002      101.2       
              0.2287       156.26       0.26002      101.2       
              0.064522     132.49       0.060659     95.402       0.93244     -30.419       0.16259      123.13      
              0.25592      96.622       0.18803      149.38      

